"","type","FP2","F8","T4","T6","O2","FP1","F7","T3","T5","O1","F4","C4","P4","F3","C3","P3","Fz","Pz","Cz","eye"
"1","H",0.586,0.234,0.352,0.273,0.547,0.313,0.469,0.586,0.547,0.391,0.391,0.508,0.547,0.391,0.586,0.43,0.625,0.469,0.273,"C"
"2","H",0.352,0.156,0.391,0.352,0.234,0.469,0.234,0.43,0.234,0.391,0.313,0.313,0.352,0.391,0.273,0.313,0.352,0.43,0.352,"C"
"3","H",0.43,0.508,0.352,0.742,0.273,0.586,0.391,0.352,0.43,0.352,0.352,0.313,0.352,0.352,0.469,0.547,0.508,0.352,0.273,"C"
"4","H",0.391,0.195,0.508,0.469,0.547,0.352,0.273,0.313,0.352,0.273,0.352,0.352,0.586,0.391,0.273,0.352,0.234,0.273,0.391,"C"
"5","H",0.352,0.352,0.313,0.43,0.391,0.117,0.234,0.508,0.313,0.234,0.313,0.469,0.508,0.313,0.391,0.352,0.352,0.313,0.313,"C"
"6","H",0.156,0.313,0.039,0.195,0.273,0.234,0.234,0.313,0.352,0.156,0.195,0.352,0.508,0.273,0.195,0.352,0.195,0.352,0.195,"C"
"7","H",0.039,0.117,0.313,0.078,0,0.078,0.078,0.117,0.117,0.156,0.078,0.117,0.156,0,0.117,0.039,0,0.078,0.078,"C"
"8","H",0.195,0.234,0.039,0.078,0.078,0,0.156,0.156,0.195,0.195,0,0.039,0.117,0.117,0.078,0.156,0.156,0.078,0.078,"C"
"9","H",0.039,0.156,0.039,0.117,0.039,0.039,0.195,0.117,0,0,0,0.078,0.039,0.117,0.078,0.156,0.156,0.039,0.078,"C"
"10","H",0.195,0.156,0.117,0.117,0.039,0.078,0.234,0.156,0.078,0.156,0.078,0.156,0.078,0.078,0.195,0.078,0.117,0.117,0.156,"C"
"11","H",0.156,0.078,0.078,0.117,0.078,0.078,0.117,0.117,0.078,0.117,0.117,0.117,0.156,0.039,0.078,0.039,0.156,0.117,0.117,"C"
"12","H",0.156,0,0.273,0.156,0.156,0.117,0.195,0.234,0.039,0.195,0.078,0.117,0.117,0.195,0.156,0.156,0.078,0.039,0.117,"C"
"13","H",0.195,0.117,0.156,0.039,0.117,0.195,0.195,0.313,0.039,0.156,0.156,0.078,0.039,0.195,0.195,0.273,0.117,0.273,0.156,"C"
"14","H",0.352,0.273,0.313,0.43,0.508,0.508,0.273,0.273,0.43,0.195,0.313,0.43,0.234,0.352,0.078,0.156,0.508,0.43,0.273,"C"
"15","H",0.273,0.156,0.156,0.273,0.156,0.508,0.391,0.273,0.508,0.273,0.391,0.469,0.391,0.43,0.352,0.234,0.313,0.508,0.234,"C"
"16","H",0.43,0.313,0.273,0.313,0.313,0.352,0.078,0.234,0.352,0.234,0.273,0.313,0.313,0.352,0.547,0.469,0.352,0.508,0.352,"C"
"17","H",0.234,0.273,0.313,0.234,0.352,0.117,0.078,0.469,0.352,0.195,0.313,0.352,0.469,0.469,0.469,0.43,0.234,0.195,0.156,"C"
"18","H",0.273,0.039,0.156,0.195,0.039,0.234,0.234,0.313,0.156,0.156,0.117,0.234,0.313,0.234,0.352,0.117,0.117,0.273,0.117,"C"
"19","D",0.078,0.039,0.156,0.117,0.078,0.039,0.117,0.117,0,0.039,0.039,0.039,0.039,0.078,0.039,0,0,0.195,0.078,"C"
"20","D",0.078,0.156,0,0,0.078,0.156,0.234,0.117,0.039,0.078,0.117,0.078,0.078,0.156,0.078,0.039,0.117,0,0.117,"C"
"21","D",0.117,0.156,0.078,0.039,0.156,0.078,0.078,0.273,0.117,0.234,0.039,0.078,0.156,0.117,0.078,0.117,0.078,0.039,0.156,"C"
"22","D",0,0.117,0.078,0,0.117,0.039,0.195,0.195,0.078,0.234,0.039,0.078,0.117,0.078,0.078,0.117,0.039,0.078,0.117,"C"
"23","D",0.039,0.195,0.078,0.117,0.156,0.078,0.117,0.195,0.078,0.195,0.039,0.078,0.117,0.117,0.156,0.234,0.078,0.039,0.078,"C"
"24","D",0.078,0.078,0.195,0.078,0.078,0,0.039,0.117,0,0,0,0.117,0,0.039,0.039,0,0,0,0.039,"C"
"25","D",0,0.039,0,0,0,0,0.039,0,0.039,0,0,0,0.039,0,0,0.039,0.078,0,0,"C"
"26","D",0,0.195,0.039,0.117,0,0,0.117,0.117,0.156,0.039,0.039,0.039,0.039,0.039,0,0.039,0,0.039,0,"C"
"27","D",0.117,0.117,0.039,0.078,0.195,0.039,0.078,0.078,0.117,0.078,0.078,0.117,0.117,0.039,0.078,0.117,0.039,0.078,0.117,"C"
"28","D",0,0.039,0.039,0.039,0.078,0,0,0.039,0,0.039,0.039,0,0,0,0.039,0,0.039,0,0.078,"C"
"29","D",0.039,0.078,0.195,0,0.039,0.039,0.117,0.039,0,0.039,0,0.078,0,0,0,0,0,0,0.039,"C"
"30","D",0,0.156,0.039,0.078,0.039,0,0.039,0.234,0.039,0.078,0,0,0,0.117,0.117,0.039,0,0,0,"C"
"31","D",0.039,0.039,0.078,0,0.039,0.039,0.039,0.117,0,0.039,0.039,0,0.273,0.156,0,0,0.039,0.078,0.078,"C"
"32","D",0,0,0,0.078,0.039,0,0,0.078,0.039,0.039,0,0.039,0,0.039,0,0.039,0,0,0.078,"C"
"33","D",0,0.039,0.078,0.078,0.039,0,0.039,0.039,0.039,0.039,0,0.039,0.039,0.078,0.078,0,0,0,0.078,"C"
"34","D",0.039,0.078,0.039,0,0.039,0.039,0.078,0.156,0.039,0,0.039,0,0,0.039,0.078,0.117,0.039,0,0,"C"
"35","D",0.039,0.156,0.156,0.078,0.117,0.039,0.039,0.078,0.039,0.078,0.039,0.078,0,0,0.117,0.039,0,0.039,0,"C"
"36","D",0,0.078,0.039,0.039,0,0.039,0.039,0.156,0.039,0.039,0,0,0.039,0,0.078,0,0.039,0,0.078,"C"
"37","H",0,0.078,0,0,0,0,0,0,0.039,0.039,0,0,0,0,0,0,0,0,0.039,"C"
"38","H",0.078,0,0,0,0.039,0.039,0,0.078,0.078,0,0.234,0,0.039,0.039,0.039,0.039,0,0.195,0.039,"C"
"39","H",0.078,0.039,0,0,0,0.039,0.039,0.039,0,0,0,0.078,0,0,0,0.039,0.039,0,0.039,"C"
"40","H",0,0.039,0.078,0.039,0,0.039,0.039,0.078,0,0,0.078,0.039,0,0,0,0.039,0.039,0.078,0,"C"
"41","H",0,0.039,0.039,0.195,0.039,0,0,0.039,0.078,0.078,0,0.117,0.039,0,0,0.117,0,0.039,0.078,"C"
"42","H",0,0,0.039,0,0,0.039,0,0.039,0.039,0.078,0.078,0,0,0,0.078,0,0.078,0,0,"C"
"43","H",0,0.078,0.039,0.039,0.078,0,0.039,0.039,0.078,0.078,0.039,0.039,0.039,0.039,0.039,0.039,0.078,0.039,0,"C"
"44","H",0.039,0.039,0.039,0.117,0.117,0.039,0.039,0.078,0.078,0.078,0.078,0.078,0.078,0.117,0.039,0.078,0.039,0,0.039,"C"
"45","H",0.117,0.039,0,0,0.039,0.039,0,0.039,0.039,0.039,0.039,0.039,0.039,0.039,0.039,0.039,0.117,0,0.039,"C"
"46","H",0,0,0.078,0.039,0,0,0.078,0,0.039,0,0.039,0.078,0.078,0,0,0,0,0,0.117,"C"
"47","H",0,0.039,0.078,0.039,0.078,0,0,0.117,0,0,0.117,0.078,0.078,0,0.039,0,0,0.039,0.078,"C"
"48","H",0.078,0,0.117,0,0,0,0.039,0,0.117,0,0.117,0.078,0,0.039,0.078,0.039,0,0,0,"C"
"49","H",0.039,0,0,0.078,0.039,0.039,0.117,0.039,0.039,0.078,0,0.039,0.039,0,0,0.039,0,0.039,0.039,"C"
"50","H",0,0,0,0.039,0.078,0.078,0.039,0.039,0.117,0.078,0,0.039,0.078,0.117,0.078,0.039,0.039,0.039,0.078,"C"
"51","H",0.039,0.078,0.078,0.039,0.039,0.039,0.234,0.078,0.039,0.039,0,0.078,0.039,0,0.039,0.039,0.039,0.039,0.039,"C"
"52","H",0.039,0,0.039,0.078,0.039,0,0,0.117,0.039,0.078,0.078,0.039,0.039,0,0,0.117,0.117,0.117,0.039,"C"
"53","H",0.039,0,0,0.039,0,0,0.039,0,0.078,0.039,0,0,0,0,0,0,0,0,0,"C"
"54","H",0.078,0.039,0.039,0.039,0.195,0.078,0.078,0.078,0,0.117,0.078,0.039,0.039,0.078,0.117,0.156,0.156,0.078,0.156,"C"
"55","D",0.195,0.352,0.469,0.156,0.234,0.273,0.391,0.586,0.625,0.156,0.273,0.195,0.313,0.43,0.391,0.547,0.156,0.43,0.234,"C"
"56","D",0.195,0.352,0.508,0.195,0.352,0.586,0.547,0.234,0.43,0.156,0.664,0.586,0.547,0.664,0.43,0.469,0.469,0.586,0.156,"C"
"57","D",0.313,0.234,0.391,0.234,0.352,0.469,0.703,0.352,0.43,0.156,0.156,0.43,0.352,0.664,0.234,0.508,0.273,0.352,0.391,"C"
"58","D",0.586,0.352,0.586,0.469,0.313,0.469,0.703,0.195,0.234,0.273,0.469,0.43,0.313,0.781,0.234,0.352,0.313,0.508,0.195,"C"
"59","D",0.508,0.352,0.391,0.508,0.43,0.586,0.625,0.469,0.547,0.234,0.508,0.508,0.156,0.586,0.195,0.508,0.352,0.586,0.234,"C"
"60","D",0.43,0.352,0.586,0.547,0.43,0.156,0.273,0.273,0.352,0.313,0.508,0.352,0.313,0.391,0.234,0.469,0.352,0.508,0.586,"C"
"61","D",0.313,0.352,0.586,0.352,0.273,0.391,0.469,0.547,0.586,0.156,0.469,0.742,0.156,0.625,0.391,0.625,0.313,0.352,0.313,"C"
"62","D",0.352,0.43,0.391,0.391,0.586,0.352,0.273,0.43,0.313,0.313,0.313,0.508,0.352,0.234,0.43,0.703,0.195,0.273,0.156,"C"
"63","D",0.664,0.43,0.43,0.469,0.469,0.313,0.664,0.391,0.625,0.313,0.43,0.547,0.508,0.703,0.234,0.586,0.508,0.391,0.313,"C"
"64","D",0.156,0.43,0.391,0.313,0.508,0.273,0.313,0.234,0.313,0.273,0.469,0.508,0.352,0.781,0.391,0.508,0.391,0.391,0.43,"C"
"65","D",0.43,0.352,0.195,0.234,0.547,0.469,0.508,0.313,0.43,0.156,0.508,0.703,0.469,0.625,0.352,0.664,0.273,0.898,0.234,"C"
"66","D",0.234,0.234,0.469,0.586,0.586,0.273,0.391,0.469,0.43,0.195,0.352,0.547,0.273,0.43,0.352,0.43,0.195,0.586,0.195,"C"
"67","D",0.273,0.117,0.547,0.273,0.156,0.273,0.352,0.469,0.234,0.156,0.234,0.664,0.234,0.352,0.156,0.391,0.352,0.234,0.156,"C"
"68","D",0.352,0.234,0.195,0.234,0.547,0.313,0.664,0.313,0.313,0.117,0.234,0.391,0.352,0.508,0.352,0.43,0.43,0.664,0.234,"C"
"69","D",0.391,0.234,0.273,0.313,0.352,0.43,0.273,0.313,0.273,0.234,0.391,0.313,0.43,0.234,0.391,0.391,0.039,0.469,0.234,"C"
"70","D",0.195,0.234,0.391,0.156,0.43,0.547,0.508,0.43,0.664,0.156,0.391,0.469,0.273,0.43,0.273,0.547,0.391,0.234,0.273,"C"
"71","D",0.156,0.195,0.625,0.273,0.156,0.352,0.82,0.273,0.273,0.117,0.352,0.625,0.117,0.313,0.43,0.195,0.391,0.43,0.195,"C"
"72","D",0.117,0.156,0.391,0.313,0.469,0.469,0.352,0.273,0.273,0.352,0.273,0.352,0.117,0.352,0.234,0.156,0.508,0.273,0.234,"C"
"73","D",0.039,0,0.039,0.039,0,0.078,0.039,0.078,0,0,0,0.039,0.078,0,0,0,0,0,0,"C"
"74","D",0.039,0,0,0.078,0.039,0,0,0.078,0.156,0.039,0.039,0,0.117,0,0.195,0.156,0.078,0,0.039,"C"
"75","D",0.078,0.117,0,0.078,0.039,0.156,0.117,0.078,0,0,0.078,0.078,0.078,0.078,0.117,0,0.117,0.078,0.078,"C"
"76","D",0.078,0.039,0.039,0.117,0.078,0,0,0,0,0,0,0.039,0.078,0,0,0.039,0,0,0.078,"C"
"77","D",0,0,0,0,0.078,0,0,0.078,0.078,0.039,0,0,0,0,0,0,0,0,0.156,"C"
"78","D",0.039,0.039,0,0.117,0,0,0,0,0,0,0.078,0.039,0,0,0.078,0,0,0.156,0,"C"
"79","D",0,0,0.039,0,0,0,0,0,0.039,0,0,0,0,0,0,0,0,0,0,"C"
"80","D",0,0,0.039,0.195,0.039,0.078,0.078,0.039,0.117,0.156,0,0.039,0.078,0,0.078,0.039,0,0.039,0.078,"C"
"81","D",0,0,0,0.156,0.156,0,0,0,0.117,0.078,0,0,0.195,0.039,0,0,0,0,0.43,"C"
"82","D",0,0,0,0,0,0.039,0,0,0,0,0,0,0,0.039,0,0,0,0,0,"C"
"83","D",0.078,0.273,0.234,0.117,0.078,0.039,0,0,0,0.039,0.039,0,0.039,0.078,0.078,0.078,0.039,0.078,0.039,"C"
"84","D",0,0,0,0.234,0.039,0,0,0,0,0.117,0,0,0.078,0,0,0.039,0.039,0,0,"C"
"85","D",0,0.039,0.039,0,0.039,0,0.039,0.039,0.195,0.039,0,0.156,0.078,0,0.039,0.078,0,0.039,0.117,"C"
"86","D",0,0,0.078,0.117,0.078,0,0,0.078,0.078,0.117,0.039,0.117,0.117,0,0,0,0,0.039,0.039,"C"
"87","D",0.078,0.234,0.039,0.156,0,0.078,0.039,0,0,0,0.039,0.078,0.273,0.078,0.078,0,0.117,0.195,0,"C"
"88","D",0,0,0,0,0.039,0.039,0.078,0.039,0.039,0.039,0.039,0,0,0,0,0,0,0.039,0,"C"
"89","D",0,0,0,0.039,0,0,0,0,0,0,0,0,0,0,0,0.039,0,0.039,0.039,"C"
"90","D",0.078,0,0,0.078,0.039,0.156,0.078,0,0,0,0.039,0,0.039,0.078,0.156,0,0.117,0,0,"C"
"91","H",0.156,0.195,0.156,0.156,0.039,0.156,0,0.039,0.078,0.039,0.078,0.156,0.195,0.039,0,0.039,0.234,0.195,0.234,"C"
"92","H",0.039,0.078,0.039,0,0,0,0.039,0,0,0,0.039,0.078,0.039,0,0.078,0.078,0.039,0,0.039,"C"
"93","H",0.313,0,0,0,0,0,0,0.078,0,0,0,0,0.039,0,0,0,0,0,0,"C"
"94","H",0.039,0.117,0.078,0.039,0.039,0,0,0,0.039,0.039,0,0.039,0,0.078,0.039,0,0,0,0,"C"
"95","H",0.039,0.117,0.195,0.195,0,0,0,0,0,0,0,0.039,0,0,0,0.039,0,0,0.039,"C"
"96","H",0.078,0.078,0,0.117,0.156,0,0,0.117,0.078,0.117,0.156,0.078,0,0.156,0.117,0.117,0.156,0.078,0.039,"C"
"97","H",0,0,0,0,0,0,0.078,0.078,0,0,0.039,0,0,0.156,0.156,0.156,0.117,0.117,0.078,"C"
"98","H",0.078,0,0.078,0.039,0.039,0,0,0.039,0.078,0,0,0.039,0.039,0,0.039,0.039,0,0.039,0,"C"
"99","H",0.117,0.117,0.117,0.352,0.156,0.117,0.078,0.039,0,0,0.156,0.078,0.195,0.117,0.039,0.078,0.039,0.078,0.078,"C"
"100","H",0.078,0.039,0,0,0.039,0.039,0.039,0,0,0,0.117,0.039,0,0,0.078,0.039,0.078,0.039,0,"C"
"101","H",0,0,0,0,0,0,0.039,0.039,0,0,0,0,0,0,0,0.039,0,0,0.039,"C"
"102","H",0,0.039,0.195,0.156,0.195,0,0,0.039,0.078,0.078,0,0.117,0.156,0,0.039,0.078,0,0,0.195,"C"
"103","H",0,0,0,0,0,0,0.039,0,0,0,0,0.039,0.039,0.039,0,0,0,0,0,"C"
"104","H",0,0,0,0,0,0.078,0,0.234,0.078,0,0.117,0.039,0,0.039,0.078,0.039,0.117,0.078,0.039,"C"
"105","H",0.039,0,0.039,0,0,0,0,0,0,0,0.039,0.039,0,0.078,0.039,0.078,0,0,0,"C"
"106","H",0,0,0.039,0.195,0.078,0.039,0.039,0.078,0,0.039,0,0,0,0.078,0.078,0,0,0.078,0.078,"C"
"107","H",0.039,0.039,0.078,0,0,0.039,0,0.039,0.078,0.039,0.039,0.078,0.039,0.078,0.078,0.039,0.117,0.117,0.078,"C"
"108","H",0.039,0.039,0.039,0.039,0,0.117,0,0,0.039,0.039,0.156,0,0.078,0,0.078,0,0.078,0.156,0.234,"C"
"109","D",0.156,0.078,0,0,0,0.625,0.117,0,0,0,0.039,0,0,0,0,0,0.039,0.039,0,"C"
"110","D",0.195,0.039,0.156,0.078,0.078,1.211,0,0,0.039,0.039,0,0.156,0.117,0.117,0.039,0.117,0,0.117,0.117,"C"
"111","D",0.078,0,0.039,0.195,0.117,0.703,0,0,0.195,0.156,0,0.039,0.234,0,0,0,0,0,0.234,"C"
"112","D",0.078,0.039,0,0,0,0.742,0,0.039,0,0,0,0,0,0,0,0.039,0,0,0,"C"
"113","D",0.039,0.078,0.078,0.078,0.352,0.664,0,0.078,0.039,0.039,0.117,0.117,0.117,0.156,0.117,0.078,0.117,0.117,0.117,"C"
"114","D",0.117,0.039,0.078,0.078,0.039,0.508,0,0,0.117,0.195,0.039,0.039,0.078,0,0.078,0.234,0,0.039,0.195,"C"
"115","D",0,0,0,0.039,0.078,0.469,0,0,0.195,0.195,0,0,0,0,0,0,0,0,0,"C"
"116","D",0.078,0.039,0.078,0.039,0,0.43,0.117,0.039,0.078,0.117,0.078,0.039,0.078,0.078,0.078,0.039,0.078,0.078,0.039,"C"
"117","D",0.078,0.156,0,0,0.156,0.664,0.039,0,0,0,0.039,0.078,0.039,0.039,0.078,0.078,0.039,0.039,0.078,"C"
"118","D",0.117,0,0,0,0.039,0.547,0.039,0.039,0.078,0.117,0.039,0.117,0.039,0.039,0.117,0.117,0.039,0.078,0.078,"C"
"119","D",0.039,0,0.039,0.117,0.117,0.547,0.078,0.078,0,0.117,0,0.039,0.039,0.039,0,0.039,0.039,0,0.039,"C"
"120","D",0.078,0,0,0,0,0.703,0,0,0.078,0.156,0,0,0,0,0,0.078,0,0,0,"C"
"121","D",0.039,0,0,0.234,0.117,0.586,0.039,0,0,0.039,0,0,0.039,0.078,0.078,0.039,0.039,0.156,0.039,"C"
"122","D",0.234,0,0,0.078,0.117,0.742,0.078,0.117,0.156,0.078,0.273,0.156,0.117,0.234,0.234,0.195,0.273,0.234,0.117,"C"
"123","D",0.234,0.039,0,0,0.078,0.898,0.078,0,0.039,0.039,0,0,0.039,0.039,0,0,0.039,0,0,"C"
"124","D",0.195,0,0.078,0,0.078,0.742,0,0,0.078,0.234,0.039,0,0.039,0.039,0,0.078,0,0,0.039,"C"
"125","D",0.234,0.039,0,0.039,0,0.703,0,0.039,0,0.078,0,0,0.039,0,0,0,0,0,0,"C"
"126","D",0.078,0.156,0.117,0.039,0,0.508,0,0,0,0,0.117,0.039,0.039,0.078,0.078,0,0.078,0.078,0.039,"C"
"127","H",0.117,0.195,0.156,0.313,0.352,0.391,0.43,0.078,0.313,0.313,0.117,0.352,0.156,0.391,0.117,0.508,0.195,0.469,0.117,"C"
"128","H",0.273,0.195,0.313,0.117,0.352,0.117,0.273,0.195,0.547,0,0.273,0.234,0.078,0.391,0.195,0.469,0.117,0.547,0.234,"C"
"129","H",0.313,0,0.391,0.195,0.586,0.195,0.273,0.195,0.508,0.156,0.156,0.195,0.078,0.195,0.117,0.547,0.273,0.508,0.039,"C"
"130","H",0.078,0.156,0.273,0.078,0.273,0.039,0.273,0.156,0.391,0.156,0.195,0.508,0.117,0.195,0.156,0.273,0.117,0.43,0.117,"C"
"131","H",0.195,0.078,0.195,0.156,0.469,0.156,0.156,0.156,0.313,0.078,0.156,0.352,0.156,0.156,0.117,0.469,0.078,0.508,0.078,"C"
"132","H",0.078,0.078,0.195,0.156,0.352,0.117,0.156,0.195,0.313,0.078,0.313,0.313,0.117,0.352,0.234,0.313,0.117,0.391,0.156,"C"
"133","H",0.273,0.234,0.078,0.078,0.352,0.195,0.273,0.039,0.117,0.039,0.195,0.391,0.195,0.234,0.117,0.352,0.117,0.469,0.117,"C"
"134","H",0.195,0.195,0.273,0.273,0.43,0.117,0.234,0.156,0.234,0.234,0.156,0.313,0.234,0.234,0.195,0.195,0.156,0.43,0.313,"C"
"135","H",0.156,0,0.273,0.117,0.313,0.078,0.313,0.195,0.625,0.039,0.117,0.234,0.117,0.469,0.039,0.625,0.156,0.234,0.352,"C"
"136","H",0.195,0.156,0.313,0.117,0.234,0.078,0.273,0.117,0.352,0.117,0.195,0.313,0.117,0.156,0.078,0.313,0.195,0.313,0.078,"C"
"137","H",0.391,0.195,0.273,0.156,0.352,0.273,0.117,0.313,0.547,0.234,0.156,0.391,0.195,0.195,0.234,0.234,0.078,0.43,0.195,"C"
"138","H",0.195,0.234,0.391,0.273,0.313,0.156,0.117,0.117,0.391,0.156,0.234,0.352,0.117,0.078,0.273,0.273,0.156,0.469,0.234,"C"
"139","H",0.273,0.313,0.234,0.156,0.391,0.195,0.273,0.195,0.547,0.078,0.234,0.352,0.117,0.352,0.078,0.234,0.156,0.352,0.156,"C"
"140","H",0.273,0.156,0.078,0.195,0.43,0.117,0.234,0.117,0.43,0.234,0.156,0.234,0.156,0.156,0,0.508,0.078,0.625,0.039,"C"
"141","H",0.273,0.078,0.234,0.195,0.234,0.078,0.273,0.273,0.234,0.156,0.156,0.234,0.078,0.078,0.156,0.195,0.273,0.273,0.117,"C"
"142","H",0.156,0.078,0.078,0.234,0.469,0.078,0.156,0.078,0.391,0.117,0.117,0.352,0.078,0.234,0.039,0.273,0.156,0.273,0.195,"C"
"143","H",0.234,0.117,0.352,0.117,0.43,0.039,0.43,0.117,0.586,0.234,0.117,0.273,0.117,0.195,0.195,0.313,0.195,0.43,0.195,"C"
"144","H",0.195,0.195,0.273,0.117,0.547,0.117,0.195,0.117,0.625,0.273,0.078,0.156,0.156,0.234,0.195,0.313,0.273,0.391,0.313,"C"
"145","D",0.039,0.039,0.078,0.039,0.039,0.117,0.078,0.039,0.156,0,0.117,0.078,0.234,0.234,0.117,0.117,0.156,0.117,0.039,"C"
"146","D",0.078,0.078,0.039,0,0,0,0.039,0,0,0,0,0,0,0,0,0,0,0,0,"C"
"147","D",0,0,0.156,0.078,0.156,0.117,0.156,0,0.078,0.039,0,0.117,0.039,0,0.078,0.078,0,0.078,0.117,"C"
"148","D",0,0.117,0.039,0,0.078,0,0,0,0,0.117,0.039,0.117,0,0,0,0,0.039,0.039,0,"C"
"149","D",0,0,0,0,0,0.078,0.078,0,0,0,0,0,0,0.156,0,0,0.078,0.039,0,"C"
"150","D",0,0.039,0.039,0.234,0.273,0.039,0.039,0,0.469,0.273,0,0.117,0.195,0,0,0.078,0,0.195,0.039,"C"
"151","D",0,0,0,0,0,0,0,0.039,0,0,0,0,0,0,0,0,0,0,0,"C"
"152","D",0,0,0.078,0,0,0,0.156,0.078,0.078,0,0,0,0,0.078,0.039,0.039,0,0.039,0,"C"
"153","D",0,0,0.039,0,0,0,0,0,0,0,0,0,0,0,0,0,0,0,0,"C"
"154","D",0,0,0.117,0.039,0.117,0,0.039,0,0,0.039,0.156,0.195,0.039,0.195,0.234,0.234,0.43,0.234,0.039,"C"
"155","D",0.156,0.039,0.039,0,0.117,0.156,0.313,0,0.039,0.039,0.234,0.078,0.039,0.195,0,0.117,0.117,0.156,0.234,"C"
"156","D",0,0,0.039,0.078,0.117,0,0.039,0.117,0.117,0.078,0.273,0.313,0.156,0.039,0.195,0.156,0.117,0.078,0.117,"C"
"157","D",0,0,0.039,0,0,0,0.039,0,0,0,0,0,0,0,0,0,0,0,0,"C"
"158","D",0,0,0,0.039,0,0,0,0.078,0.039,0,0,0,0,0,0,0,0,0,0,"C"
"159","D",0,0,0.039,0,0.078,0,0,0,0.039,0,0,0,0,0,0,0.078,0,0,0,"C"
"160","D",0,0.078,0,0,0,0.117,0.039,0.039,0,0,0.117,0,0,0.117,0.117,0.039,0.117,0.117,0.078,"C"
"161","D",0,0.078,0.117,0,0,0.117,0.078,0.117,0,0,0.078,0.039,0.039,0.117,0.078,0.117,0.078,0.039,0.039,"C"
"162","D",0.078,0.195,0.117,0,0,0.078,0.117,0,0,0,0.156,0.078,0,0.078,0,0,0.156,0.078,0,"C"
"163","D",0.039,0.078,0.078,0,0,0,0.039,0,0,0.156,0.039,0.039,0.039,0,0.156,0.117,0.039,0.039,0.039,"C"
"164","D",0.078,0,0,0.039,0.039,0.039,0,0,0,0,0,0,0,0,0,0,0.078,0,0,"C"
"165","D",0,0.039,0.039,0.117,0,0,0.078,0.039,0.039,0.039,0.039,0.039,0.039,0.039,0,0.039,0,0.039,0.039,"C"
"166","D",0.039,0.039,0.039,0.078,0,0.039,0.039,0.039,0.078,0,0.078,0.039,0.039,0.039,0.039,0.078,0.117,0,0,"C"
"167","D",0,0,0.039,0,0,0,0,0.078,0.039,0,0,0,0,0,0.078,0,0,0,0,"C"
"168","D",0,0,0.117,0.078,0,0.039,0,0.078,0,0.039,0.039,0,0.039,0,0.039,0.039,0,0,0,"C"
"169","D",0,0,0.156,0.117,0.039,0,0.078,0,0,0.039,0.195,0.078,0.156,0.156,0.195,0.156,0.156,0.117,0.156,"C"
"170","D",0.039,0,0,0.078,0.234,0.039,0,0.039,0.273,0.234,0,0.039,0,0.039,0,0.156,0,0,0,"C"
"171","D",0.039,0,0.039,0,0,0.078,0.039,0,0,0,0,0.078,0,0,0,0,0,0,0,"C"
"172","D",0,0.117,0,0,0.195,0.117,0,0,0.117,0.117,0.039,0.039,0.195,0.078,0.156,0.195,0.078,0.039,0.313,"C"
"173","D",0.039,0,0,0.117,0.078,0.078,0.039,0.078,0,0.078,0.039,0,0.039,0,0,0.039,0.078,0.039,0.039,"C"
"174","D",0,0,0,0.078,0.117,0.039,0.117,0.078,0.117,0.078,0,0,0.078,0.039,0.078,0.078,0,0.039,0.078,"C"
"175","D",0,0,0.039,0.039,0,0,0,0.039,0,0,0,0,0,0,0,0,0,0,0,"C"
"176","D",0,0,0.078,0,0.039,0,0.156,0.078,0.039,0,0.039,0.078,0.078,0.078,0.078,0.039,0.039,0.039,0.039,"C"
"177","D",0,0,0.039,0,0.039,0,0,0,0,0,0,0,0,0,0,0,0,0,0,"C"
"178","D",0.039,0.078,0.078,0.117,0,0.039,0.039,0.039,0,0.078,0.039,0,0.039,0,0.039,0,0.039,0,0,"C"
"179","D",0,0,0,0.039,0.117,0,0,0.039,0.039,0.039,0,0,0,0,0,0,0,0,0,"C"
"180","D",0.117,0.039,0.078,0,0,0.039,0.117,0.039,0.039,0,0.039,0.117,0.039,0.039,0.039,0.039,0.039,0.156,0.039,"C"
"181","H",0.195,0.234,0.586,0.117,0.195,0.117,0.586,0.313,0.078,0.078,0.313,0.508,0.117,0.234,0.43,0.313,0.078,0.156,0.313,"C"
"182","H",0.195,0.352,0.547,0.078,0.313,0.156,0.703,0.469,0.195,0.117,0.352,0.977,0.078,0.664,0.313,0.156,0.039,0.313,0.547,"C"
"183","H",0.43,0.313,0.547,0.078,0.273,0.039,0.586,0.234,0.156,0.039,0.313,0.703,0.117,0.664,0.313,0.234,0.078,0.273,0.43,"C"
"184","H",0.273,0.313,0.586,0.039,0.234,0.156,0.43,0.469,0.039,0.039,0.391,0.664,0.078,0.625,0.508,0.352,0.039,0.156,0.469,"C"
"185","H",0.156,0.508,0.742,0.117,0.117,0.078,0.742,0.313,0.273,0.117,0.391,0.742,0.078,0.625,0.43,0.313,0,0.352,0.469,"C"
"186","H",0.313,0.234,0.859,0.117,0.313,0.156,0.508,0.352,0.156,0.078,0.43,0.742,0.117,0.586,0.313,0.195,0.039,0.508,0.508,"C"
"187","H",0.273,0.273,0.469,0.078,0.273,0.156,0.625,0.156,0.156,0.078,0.195,0.508,0.039,0.43,0.391,0.195,0.156,0.195,0.234,"C"
"188","H",0.117,0.313,0.43,0.117,0.078,0.039,0.664,0.352,0.117,0.117,0.313,0.664,0.156,0.547,0.273,0.273,0.078,0.273,0.352,"C"
"189","H",0.391,0.391,0.703,0.078,0.313,0.078,0.742,0.273,0.117,0.078,0.703,0.547,0.195,0.859,0.156,0.234,0.039,0.391,0.273,"C"
"190","H",0.313,0.313,0.703,0,0.313,0,0.586,0.117,0,0,0.117,0.625,0.117,0.547,0.352,0.313,0,0.273,0.156,"C"
"191","H",0.117,0.273,0.43,0.117,0.234,0.039,0.313,0.234,0.117,0.117,0.234,0.313,0.039,0.664,0.156,0.117,0.039,0.195,0.273,"C"
"192","H",0.313,0.234,0.508,0.117,0.273,0.156,0.664,0.195,0.117,0.078,0.117,0.547,0.078,0.508,0.352,0.156,0.039,0.469,0.117,"C"
"193","H",0.195,0.156,0.586,0.117,0.234,0.078,0.313,0.313,0.117,0.039,0.234,0.664,0.117,0.508,0.273,0.117,0,0.273,0.352,"C"
"194","H",0.195,0.117,0.469,0.117,0.078,0.039,0.313,0.313,0.039,0.156,0.117,0.547,0.195,0.43,0.234,0.195,0.078,0.234,0.039,"C"
"195","H",0.234,0.117,0.586,0.039,0.195,0,0.156,0.117,0.039,0.039,0.078,0.586,0.039,0.352,0.195,0.234,0.078,0.43,0.234,"C"
"196","H",0.352,0.273,0.391,0.117,0.234,0.078,0.43,0.273,0.039,0.117,0.078,0.82,0.195,0.508,0.234,0.273,0,0.469,0.273,"C"
"197","H",0.117,0.117,0.43,0.117,0.391,0.117,0.43,0.117,0.195,0.078,0.273,0.625,0.117,0.43,0.469,0.195,0.039,0.156,0.039,"C"
"198","H",0.313,0.234,0.547,0.078,0.234,0.195,0.469,0.195,0.039,0.273,0.195,0.313,0.156,0.391,0.313,0.078,0.039,0.313,0.391,"C"
"199","H",0.039,0.234,0.625,0.039,0.117,0.039,0.859,0.469,0.313,0.078,0,0.938,0.078,0.586,0.078,0.117,0.313,0.156,0,"C"
"200","H",0.078,0.039,1.094,0.039,0.195,0.039,1.016,0.195,0.586,0.039,0.039,0.859,0.039,0.547,0.078,0.117,0.234,0.078,0.039,"C"
"201","H",0.078,0.117,0.781,0.078,0.273,0.039,0.664,0.313,0.352,0.039,0.078,0.664,0.039,0.742,0.117,0.195,0.313,0.156,0.117,"C"
"202","H",0.078,0.078,1.133,0.039,0.156,0.039,0.82,0.273,0.391,0.039,0.117,0.898,0.039,0.977,0.195,0.156,0.078,0.078,0.078,"C"
"203","H",0.078,0.039,0.82,0.156,0.117,0.078,0.859,0.352,0.508,0.078,0.078,1.016,0.117,0.742,0.039,0.273,0.117,0.273,0.039,"C"
"204","H",0.078,0.117,0.547,0.156,0.078,0.117,0.586,0.195,0.43,0.039,0.117,0.938,0.156,0.703,0.117,0.117,0.195,0.117,0.117,"C"
"205","H",0.117,0.039,0.586,0.039,0.195,0,0.547,0.117,0.43,0.039,0.039,0.82,0.078,0.508,0.039,0.156,0.156,0.078,0.039,"C"
"206","H",0,0.039,0.82,0,0.195,0.039,0.742,0.195,0.469,0.039,0.039,0.781,0,0.664,0.078,0.117,0.273,0.117,0.039,"C"
"207","H",0.156,0.078,0.625,0.039,0.078,0.039,0.859,0.117,0.43,0.039,0.039,0.625,0.039,0.82,0.039,0.078,0.313,0.078,0.039,"C"
"208","H",0.039,0.078,0.898,0,0.039,0,0.664,0.039,0.195,0,0.039,0.781,0,0.859,0.039,0.039,0.117,0.078,0.078,"C"
"209","H",0,0.039,0.977,0,0,0,0.82,0.156,0.352,0,0.078,0.859,0,0.703,0.078,0.078,0.313,0.039,0.039,"C"
"210","H",0.078,0,0.898,0.039,0.195,0.039,0.898,0.117,0.195,0,0,0.938,0,0.781,0.156,0.117,0.156,0.078,0,"C"
"211","H",0.078,0.039,0.547,0.039,0.117,0.039,0.898,0.195,0.352,0.039,0.039,0.859,0.078,0.703,0.039,0.117,0.156,0.156,0.039,"C"
"212","H",0.039,0.039,0.781,0.117,0.039,0.039,0.625,0.234,0.273,0.117,0.078,0.859,0.117,0.547,0.039,0.078,0.156,0.313,0.039,"C"
"213","H",0.078,0.039,1.016,0.039,0.117,0.039,0.82,0.078,0.234,0.039,0.039,0.742,0.039,0.703,0.078,0.195,0.117,0.117,0.039,"C"
"214","H",0.078,0.039,0.859,0.078,0.117,0.039,0.625,0.078,0.273,0.039,0.078,0.625,0.039,1.055,0.078,0.156,0.234,0.156,0.078,"C"
"215","H",0.039,0.078,0.977,0.039,0.117,0.039,0.586,0.117,0.273,0.039,0.078,0.742,0.039,0.742,0.078,0.039,0.156,0.117,0.117,"C"
"216","H",0.117,0.117,0.43,0.039,0.156,0.039,0.781,0.156,0.234,0.117,0.078,0.898,0.039,0.664,0.078,0.117,0.156,0.078,0.078,"C"
"217","D",0.039,0.039,0.039,0,0,0.156,0.117,0.039,0.078,0,0,0.039,0,0.039,0.039,0.039,0,0.039,0,"C"
"218","D",0,0,0,0.039,0.039,0.313,0.117,0,0,0.039,0,0,0,0.039,0.078,0.039,0,0,0,"C"
"219","D",0,0.039,0.117,0,0,0.234,0.039,0,0,0.078,0.078,0.195,0.234,0,0.156,0,0.039,0.234,0.195,"C"
"220","D",0,0.156,0.117,0,0.039,0.234,0.117,0,0,0,0.039,0.039,0,0.039,0,0,0.117,0,0,"C"
"221","D",0.117,0.078,0.078,0.039,0,0.195,0,0,0,0,0.156,0.039,0,0.039,0,0.039,0.117,0.039,0.039,"C"
"222","D",0.156,0.078,0.117,0.039,0.078,0.117,0.195,0.078,0,0,0.117,0.078,0,0.234,0.313,0.039,0.156,0.117,0.039,"C"
"223","D",0.039,0.039,0.039,0.117,0.039,0.156,0.078,0.117,0.078,0.039,0.039,0.039,0,0.117,0,0.078,0.039,0,0.117,"C"
"224","D",0,0.156,0.117,0.078,0.078,0.117,0,0.117,0.117,0,0.117,0.117,0.078,0,0.039,0.117,0.039,0.078,0.078,"C"
"225","D",0.039,0.078,0.117,0,0.078,0.352,0.039,0,0,0.039,0.039,0.078,0,0,0,0.117,0,0.039,0.078,"C"
"226","D",0,0.039,0.039,0.039,0,0.039,0.039,0.039,0.039,0.039,0,0.078,0,0,0.039,0,0,0.039,0,"C"
"227","D",0.039,0,0.039,0.039,0,0.078,0.078,0.039,0.039,0,0.039,0.039,0,0.039,0.039,0.039,0.039,0,0,"C"
"228","D",0,0.078,0.039,0.039,0,0.352,0,0.078,0,0.156,0,0.039,0.078,0.039,0.039,0,0,0,0.039,"C"
"229","D",0,0,0.156,0,0.039,0.273,0,0,0.117,0.078,0,0.078,0.039,0.039,0,0.078,0,0,0.039,"C"
"230","D",0.117,0.039,0.039,0,0,0.508,0.078,0.078,0.039,0.039,0,0.039,0.039,0.039,0.039,0,0,0,0.039,"C"
"231","D",0,0,0,0,0,0.352,0,0,0,0,0.039,0.039,0,0,0.039,0.039,0,0,0,"C"
"232","D",0.117,0.117,0.117,0.117,0.117,0.313,0.078,0.078,0.078,0.117,0.117,0.195,0.078,0.117,0.117,0.117,0.078,0.156,0.117,"C"
"233","D",0.039,0.039,0,0.039,0,0.156,0.078,0,0.039,0,0.039,0.039,0.039,0,0,0,0.039,0.039,0.078,"C"
"234","D",0,0.039,0,0,0.078,0.234,0.078,0.195,0.039,0.039,0,0.039,0.156,0.078,0.195,0.273,0.039,0.195,0.195,"C"
"235","D",0,0.039,0,0,0,0,0.039,0.039,0,0,0,0,0,0.039,0.039,0,0,0,0,"C"
"236","D",0.078,0.156,0,0.039,0.039,0.078,0.039,0.078,0.039,0.039,0.078,0.039,0.039,0.039,0,0.039,0.039,0.039,0.039,"C"
"237","D",0.078,0.039,0.078,0.039,0.039,0.039,0,0,0,0,0.039,0.078,0.039,0.039,0.039,0,0.039,0.039,0.039,"C"
"238","D",0.039,0,0.078,0.039,0.039,0.078,0,0,0,0.039,0.039,0,0.039,0.039,0.078,0,0.078,0,0.195,"C"
"239","D",0,0.039,0.039,0.039,0,0.039,0.039,0.078,0,0.039,0.078,0.078,0,0,0,0.039,0,0,0,"C"
"240","D",0.039,0.078,0.039,0,0.039,0.117,0.117,0.195,0.117,0.078,0.078,0,0.039,0.156,0.156,0.078,0.195,0.078,0.039,"C"
"241","D",0,0,0.078,0,0.078,0.039,0.039,0.117,0.078,0,0,0,0.078,0,0,0,0,0,0,"C"
"242","D",0.195,0.078,0.117,0.039,0,0.039,0.039,0.078,0,0,0.078,0,0,0.078,0,0,0.039,0,0,"C"
"243","D",0.078,0.039,0,0.039,0.117,0.039,0.078,0.117,0.117,0.117,0.078,0.039,0.078,0.078,0.078,0.195,0.078,0.117,0.234,"C"
"244","D",0,0,0,0,0.039,0,0,0.078,0.078,0.039,0,0,0,0,0.039,0.078,0.039,0,0,"C"
"245","D",0.039,0,0.039,0,0.039,0,0.078,0.039,0.039,0,0,0,0,0.039,0,0,0,0,0,"C"
"246","D",0,0,0.117,0.234,0.156,0,0.039,0.078,0.078,0,0.039,0.234,0.547,0,0,0.234,0,0.195,0.195,"C"
"247","D",0,0,0,0.039,0,0,0,0,0,0,0.039,0,0.039,0.039,0,0,0,0,0,"C"
"248","D",0,0,0,0,0.078,0.039,0,0,0.039,0.078,0,0,0.039,0,0,0,0.039,0,0,"C"
"249","D",0,0.039,0,0,0,0,0,0,0.078,0,0.039,0,0,0,0.117,0,0,0,0,"C"
"250","D",0,0.039,0,0,0,0.078,0,0,0,0,0,0,0,0,0.078,0,0,0,0,"C"
"251","D",0.039,0.039,0,0,0,0,0.039,0.156,0,0,0,0.078,0,0.078,0,0,0,0,0.039,"C"
"252","D",0,0.039,0.078,0.117,0.234,0.039,0,0,0.078,0.117,0.117,0.078,0.078,0.039,0,0.117,0,0,0,"C"
"253","D",0,0.039,0,0.039,0.078,0.039,0,0.039,0,0,0,0,0.078,0.039,0,0,0,0,0,"C"
"254","D",0,0,0,0,0,0.039,0.039,0.039,0,0,0,0,0,0,0,0.039,0,0,0,"C"
"255","D",0.117,0.039,0,0,0.117,0,0,0,0.039,0.078,0,0,0,0.039,0,0,0.039,0.078,0.039,"C"
"256","D",0.078,0.039,0.039,0.039,0.039,0.078,0.078,0.078,0.156,0.117,0.039,0,0.039,0.078,0.078,0.117,0.156,0.117,0.039,"C"
"257","D",0.039,0,0.039,0,0.117,0,0,0.039,0.039,0.039,0,0,0.078,0,0.078,0.039,0,0,0.078,"C"
"258","D",0,0,0,0.078,0.039,0.039,0.039,0.156,0,0.039,0,0.078,0.039,0.117,0,0.078,0,0,0,"C"
"259","D",0.039,0,0.039,0,0.039,0,0.039,0,0.078,0.039,0.039,0,0,0,0.039,0,0,0,0,"C"
"260","D",0.078,0,0,0.078,0,0.039,0,0,0.039,0.078,0,0,0.078,0.039,0,0,0,0.039,0.039,"C"
"261","D",0,0,0.039,0.078,0.078,0.078,0.039,0.039,0.039,0.078,0,0.039,0.195,0,0,0,0,0,0,"C"
"262","D",0,0.039,0.039,0.039,0,0,0.039,0,0.039,0.039,0,0,0,0.039,0,0.078,0.039,0,0.039,"C"
"263","D",0,0,0,0.117,0.195,0.117,0,0,0.039,0.039,0.078,0,0.156,0,0,0.195,0.039,0.195,0.156,"C"
"264","D",0,0.039,0.039,0.039,0.039,0.039,0.078,0,0,0.117,0,0.039,0.039,0,0,0.039,0.039,0.039,0.078,"C"
"265","D",0.039,0.039,0.039,0.039,0.117,0,0,0.039,0,0.039,0,0.078,0,0,0.039,0,0,0,0,"C"
"266","D",0.039,0,0.117,0.117,0,0.039,0.039,0,0,0,0,0,0,0,0,0.078,0,0,0.039,"C"
"267","D",0.117,0.039,0.039,0.039,0,0.156,0.078,0.039,0,0,0,0.039,0,0,0.117,0.039,0.039,0.039,0.078,"C"
"268","D",0.078,0.039,0,0.078,0,0,0,0,0.039,0,0,0,0,0,0.039,0.039,0.039,0,0,"C"
"269","D",0.039,0.078,0.156,0.195,0.039,0.039,0.078,0.039,0.078,0.039,0.039,0.039,0.078,0.039,0,0,0.039,0.039,0.039,"C"
"270","D",0.039,0.117,0.156,0.039,0.078,0.195,0.117,0,0.039,0.078,0,0.039,0.078,0.117,0.156,0.078,0.117,0.078,0.117,"C"
"271","D",0,0.039,0,0,0,0,0,0,0,0,0.039,0,0,0,0,0,0,0,0,"C"
"272","D",0.078,0.195,0.039,0.078,0.078,0.156,0.078,0.078,0.039,0,0.156,0.039,0.039,0.156,0.078,0.039,0.078,0.039,0.078,"C"
"273","D",0,0,0.039,0.039,0.117,0,0.039,0,0.117,0.156,0,0.039,0.078,0,0,0.039,0,0.078,0.078,"C"
"274","D",0.234,0.078,0,0,0.078,0.039,0.039,0.039,0.039,0.117,0.039,0,0,0.078,0.117,0.078,0.078,0,0.039,"C"
"275","D",0.039,0,0,0,0,0.078,0,0,0,0,0,0.039,0,0,0.078,0,0,0,0,"C"
"276","D",0,0,0,0,0,0,0.039,0.039,0.039,0,0,0.117,0,0,0,0.039,0,0.039,0.039,"C"
"277","D",0.078,0.078,0.195,0.117,0.156,0.156,0.117,0.039,0.117,0.156,0.117,0.117,0.117,0.039,0.039,0.078,0.117,0.117,0.156,"C"
"278","D",0,0.039,0,0.078,0,0,0,0,0.195,0.039,0.117,0.234,0.156,0,0.078,0.078,0.078,0.039,0.039,"C"
"279","D",0.039,0,0.039,0,0,0.039,0.039,0,0,0,0.078,0,0,0,0,0,0,0,0,"C"
"280","D",0,0,0.078,0,0,0.117,0,0,0.039,0.039,0,0,0.039,0,0,0,0,0.039,0,"C"
"281","D",0.156,0.117,0.078,0,0.273,0.039,0.117,0.039,0.039,0.039,0.234,0.273,0.352,0.156,0.078,0.039,0.273,0.156,0.156,"C"
"282","D",0.078,0.039,0,0.078,0.078,0.195,0.039,0.039,0.039,0.039,0.195,0.078,0.039,0.039,0.039,0,0.117,0.078,0,"C"
"283","D",0.078,0.156,0.195,0.039,0.078,0.195,0.039,0.156,0.039,0.078,0.078,0.078,0.078,0.078,0.039,0.039,0.078,0.039,0.039,"C"
"284","D",0.078,0.039,0.039,0.039,0.039,0.039,0.039,0,0.078,0.039,0.078,0.039,0.039,0.039,0.078,0.078,0,0,0.078,"C"
"285","D",0.039,0.039,0,0,0.039,0.117,0,0.039,0,0,0,0,0,0,0,0,0,0,0,"C"
"286","D",0.078,0.039,0,0.117,0.117,0.273,0.117,0.039,0.039,0.117,0.078,0.039,0.039,0.078,0.078,0.039,0.039,0.039,0.039,"C"
"287","D",0.078,0.039,0,0,0,0,0.117,0,0,0,0.078,0,0,0.078,0.078,0,0.078,0.039,0.078,"C"
"288","D",0.039,0,0.039,0.039,0,0.156,0,0,0.039,0,0,0.039,0.039,0.039,0.039,0.039,0.039,0.078,0,"C"
"289","H",0.234,0.117,0.078,0.117,0.156,0,0.078,0.352,0.234,0,0.078,0.273,0.078,0.039,0.313,0.195,0.039,0.117,0.078,"C"
"290","H",0.156,0.195,0.117,0.195,0.117,0,0.195,0.234,0.195,0.117,0.156,0.352,0.078,0.156,0.195,0.313,0.195,0,0.352,"C"
"291","H",0.117,0.078,0.117,0.234,0,0.039,0.156,0.391,0.078,0.078,0.273,0.273,0.195,0.078,0.195,0.234,0.039,0.078,0.391,"C"
"292","H",0.078,0.156,0.156,0.195,0.039,0.039,0.195,0.313,0.195,0.273,0.156,0.273,0.078,0.195,0.352,0.078,0.156,0.195,0.273,"C"
"293","H",0.078,0.117,0.078,0.195,0.078,0,0.234,0.352,0.273,0.273,0.039,0.234,0.234,0.313,0.313,0.039,0.234,0.156,0.117,"C"
"294","H",0.078,0.078,0.117,0.273,0.117,0.195,0.078,0.195,0.195,0.195,0.273,0.313,0.156,0.156,0.352,0.234,0.117,0.078,0.234,"C"
"295","H",0.156,0.117,0.078,0.469,0.273,0.039,0.313,0.156,0.313,0.313,0.117,0.43,0.117,0.078,0.234,0.117,0.43,0.117,0.273,"C"
"296","H",0.234,0.078,0.234,0.195,0.078,0,0.273,0.078,0.156,0.195,0.117,0.117,0.313,0.117,0.234,0.117,0.156,0.234,0.156,"C"
"297","H",0.273,0.156,0.156,0.234,0.039,0.117,0.078,0.234,0.234,0.234,0.195,0.156,0.078,0.43,0.313,0.156,0.234,0.078,0.078,"C"
"298","H",0.156,0.078,0.234,0.156,0.117,0.117,0.117,0.273,0.156,0.117,0.273,0.195,0.313,0.195,0.273,0.156,0.234,0.156,0.156,"C"
"299","H",0.156,0.156,0.273,0.078,0.156,0.039,0.273,0.117,0.195,0.391,0.156,0.273,0.234,0.234,0.039,0.195,0.117,0.117,0.117,"C"
"300","H",0.117,0.078,0.234,0,0.039,0.039,0.273,0.195,0.078,0.156,0.156,0.313,0.117,0.117,0.234,0.273,0.234,0.117,0.078,"C"
"301","H",0,0.117,0.195,0.234,0.313,0.117,0.234,0.234,0.195,0.078,0.273,0.313,0.117,0.195,0.195,0.156,0.078,0.117,0.273,"C"
"302","H",0.273,0.078,0.195,0.43,0.117,0.078,0.078,0.43,0.117,0.313,0.195,0.195,0.273,0.43,0.469,0.195,0.156,0.117,0.039,"C"
"303","H",0.156,0.078,0.273,0.195,0.195,0.039,0.156,0.234,0.078,0.156,0,0.391,0.156,0.313,0.117,0.195,0.234,0.078,0.117,"C"
"304","H",0.156,0.039,0.156,0.195,0.156,0.117,0.273,0.156,0.117,0.313,0.156,0.352,0.117,0.273,0.195,0.469,0.313,0.039,0.156,"C"
"305","H",0.117,0.117,0.195,0.234,0.195,0,0.273,0.156,0.234,0.195,0.273,0.117,0.195,0.195,0.313,0.078,0.156,0.078,0.195,"C"
"306","H",0.117,0.156,0.234,0.234,0.273,0,0.156,0.195,0.195,0.234,0.195,0.352,0.078,0.391,0.234,0.313,0.195,0.156,0.156,"C"
"307","H",0,0.039,0,0,0.039,0.039,0,0.039,0.078,0.039,0,0,0,0.039,0.078,0.078,0.039,0.078,0.039,"C"
"308","H",0,0.078,0.039,0.039,0.078,0,0,0.039,0.039,0.117,0.078,0,0.039,0.039,0,0.039,0.039,0.039,0.039,"C"
"309","H",0.078,0.078,0.078,0.078,0.039,0.195,0.078,0,0,0.039,0.039,0.039,0.078,0.117,0,0.039,0.078,0.039,0.117,"C"
"310","H",0,0,0,0.156,0.078,0,0.039,0.117,0,0,0,0,0.039,0,0.078,0,0,0,0.078,"C"
"311","H",0,0,0,0,0.039,0,0,0,0,0.117,0,0,0,0.039,0,0,0,0,0,"C"
"312","H",0,0,0.078,0.039,0.195,0,0.039,0.156,0.234,0.078,0.039,0.156,0.039,0,0,0.078,0,0,0.117,"C"
"313","H",0,0,0,0.039,0,0.039,0.078,0.078,0.039,0.078,0.039,0,0.078,0.078,0.039,0,0,0,0,"C"
"314","H",0.078,0.039,0.156,0.039,0,0,0,0.039,0,0,0,0,0.039,0.117,0,0,0,0,0,"C"
"315","H",0,0.039,0.039,0.039,0,0,0,0,0.039,0.078,0.039,0.078,0.039,0.039,0,0,0.078,0.039,0.117,"C"
"316","H",0.078,0,0.156,0,0.039,0.039,0.078,0.234,0.078,0,0.156,0.156,0.039,0.117,0.039,0.078,0.117,0.078,0.078,"C"
"317","H",0,0.078,0.039,0.078,0.234,0.039,0.039,0.117,0.156,0.078,0.117,0.156,0.156,0.078,0.313,0.117,0.195,0.273,0.078,"C"
"318","H",0.039,0.039,0.039,0.039,0,0.039,0.039,0,0.117,0.039,0,0,0.039,0,0.117,0.117,0.039,0,0.039,"C"
"319","H",0.039,0,0,0,0,0.039,0,0.039,0.117,0,0,0,0,0,0,0,0,0,0,"C"
"320","H",0,0.039,0.039,0,0,0,0,0.039,0,0,0,0,0,0,0.039,0,0,0.078,0,"C"
"321","H",0.039,0.039,0,0.078,0.156,0.078,0,0,0.078,0.117,0.078,0,0.117,0.078,0.039,0.078,0,0,0.078,"C"
"322","H",0,0.078,0.039,0.117,0.039,0.117,0.078,0.078,0.039,0.039,0,0.039,0,0.039,0.078,0,0,0,0.039,"C"
"323","H",0,0.117,0.117,0.039,0.039,0.039,0.078,0,0.039,0.039,0,0,0,0,0.078,0.078,0.078,0,0.195,"C"
"324","H",0.039,0.039,0.039,0,0,0.039,0.039,0.039,0,0.039,0.039,0.039,0,0.039,0.039,0.078,0.078,0.039,0.039,"C"
"325","H",0.234,0.664,0.625,0.078,0.117,0.078,0.352,0.938,0.391,0.039,0.625,0.313,0.039,0.273,0.977,0.117,0.156,0,0.664,"C"
"326","H",0.195,0.586,0.742,0.078,0.273,0.078,0.508,0.859,0.352,0.078,0.625,0.273,0.039,0.469,1.094,0.273,0.273,0.078,0.938,"C"
"327","H",0.273,0.586,0.625,0.078,0.234,0.117,0.313,1.133,0.352,0.078,1.133,0.195,0.078,0.234,0.82,0.156,0.352,0.195,0.781,"C"
"328","H",0.391,0.859,0.313,0.078,0.273,0.117,0.352,0.938,0.352,0.117,1.055,0.195,0.078,0.234,0.469,0.156,0.195,0.195,0.859,"C"
"329","H",0.195,0.938,0.625,0.117,0.234,0.195,0.273,1.172,0.195,0.117,0.977,0.273,0.117,0,0.898,0.234,0.273,0.117,1.172,"C"
"330","H",0.078,0.781,0.469,0.156,0.391,0.078,0.156,0.82,0.273,0.078,0.977,0.195,0.078,0.352,1.055,0.117,0.195,0.156,0.82,"C"
"331","H",0.039,0.742,0.234,0.078,0.352,0.039,0.313,0.859,0.273,0.039,1.016,0.234,0.039,0.156,0.859,0.078,0.156,0.078,0.898,"C"
"332","H",0.078,0.508,0.625,0.078,0.273,0,0.039,0.977,0.156,0,0.703,0.117,0,0.156,0.781,0.078,0.234,0.039,0.664,"C"
"333","H",0.117,0.859,0.859,0,0.234,0.117,0.234,0.859,0.313,0.078,0.859,0.195,0,0.313,0.547,0.234,0.078,0,1.094,"C"
"334","H",0.078,0.82,0.469,0.039,0.234,0.117,0.195,0.898,0.117,0.039,0.781,0.195,0.078,0.156,1.172,0.117,0.195,0.078,1.211,"C"
"335","H",0.195,1.211,0.391,0.078,0.117,0.156,0.352,0.664,0.117,0.078,0.977,0.234,0.078,0.352,1.055,0.156,0.234,0.195,1.172,"C"
"336","H",0.156,1.172,0.664,0.078,0.352,0.078,0.117,0.703,0.313,0.117,1.289,0.43,0.156,0.156,1.25,0.117,0.234,0.117,1.289,"C"
"337","H",0.078,1.094,0.508,0,0.078,0.078,0.234,0.82,0.117,0.078,0.859,0.195,0.039,0.195,1.289,0.078,0.273,0.078,1.367,"C"
"338","H",0.273,0.898,0.664,0.117,0.43,0.195,0.273,0.898,0.273,0.117,1.016,0.195,0.117,0.352,1.172,0.195,0.547,0.117,1.055,"C"
"339","H",0,0.938,0.352,0.078,0.156,0.117,0.156,0.898,0.156,0.039,1.289,0.195,0.039,0.078,1.484,0.078,0.273,0.078,1.289,"C"
"340","H",0.234,1.055,0.391,0.117,0.156,0.156,0.234,1.094,0.117,0.156,1.172,0.156,0.195,0.313,1.211,0.039,0.352,0.078,1.172,"C"
"341","H",0.078,0.938,0.391,0.117,0.117,0.117,0.195,0.977,0.117,0.078,1.406,0.195,0.117,0.195,1.367,0.156,0.234,0.078,1.484,"C"
"342","H",0.156,0.898,0.586,0.078,0.234,0.195,0.273,1.094,0.234,0.117,1.172,0.078,0.039,0.273,1.25,0.234,0.273,0.039,1.172,"C"
"343","H",0.391,0.352,0.313,0.781,0.313,0.391,0.469,0.469,0.391,0.352,0.508,0.625,0.469,0.43,0.234,0.391,0.43,0.586,0.391,"C"
"344","H",0.352,0.508,0.156,0.156,0.547,0.313,0.313,0.273,0.313,0.586,0.586,0.547,0.586,0.469,0.313,0.352,0.547,0.352,0.234,"C"
"345","H",0.273,0.273,0.313,0.078,0.547,0.352,0.195,0.195,0.43,0.195,0.117,0.273,0.273,0.469,0.234,0.391,0.195,0.313,0.352,"C"
"346","H",0.156,0.273,0.078,0.391,0.391,0.313,0.313,0.195,0.391,0.352,0.43,0.352,0.234,0.508,0.43,0.43,0.234,0.352,0.352,"C"
"347","H",0.273,0.195,0.273,0.313,0.547,0.273,0.469,0.43,0.586,0.391,0.313,0.586,0.508,0.391,0.352,0.391,0.508,0.234,0.469,"C"
"348","H",0.352,0.273,0.234,0.195,0.586,0.195,0.43,0.234,0.352,0.273,0.391,0.586,0.195,0.508,0.508,0.586,0.234,0.391,0.508,"C"
"349","H",0.391,0.313,0.156,0.391,0.391,0.508,0.352,0.43,0.313,0.352,0.469,0.273,0.195,0.703,0.273,0.43,0.508,0.586,0.391,"C"
"350","H",0.391,0.156,0.234,0.234,0.273,0.313,0.547,0.234,0.195,0.195,0.391,0.313,0.195,0.43,0.313,0.352,0.195,0.352,0.234,"C"
"351","H",0.352,0.508,0.43,0.313,0.508,0.313,0.273,0.586,0.586,0.469,0.313,0.469,0.391,0.43,0.273,0.391,0.352,0.43,0.234,"C"
"352","H",0.273,0.117,0.195,0.234,0.273,0.195,0.352,0.391,0.469,0.273,0.234,0.43,0.313,0.273,0.469,0.352,0.273,0.234,0.234,"C"
"353","H",0.313,0.43,0.313,0.273,0.352,0.352,0.273,0.313,0.352,0.508,0.273,0.391,0.195,0.234,0.273,0.234,0.195,0.234,0.156,"C"
"354","H",0.352,0.352,0.273,0.195,0.156,0.469,0.195,0.313,0.391,0.156,0.352,0.586,0.352,0.313,0.313,0.273,0.469,0.352,0.273,"C"
"355","H",0.352,0.313,0.313,0.469,0.43,0.469,0.508,0.43,0.273,0.273,0.352,0.313,0.313,0.43,0.273,0.391,0.273,0.352,0.547,"C"
"356","H",0.352,0.352,0.234,0.391,0.313,0.508,0.664,0.234,0.195,0.469,0.273,0.547,0.313,0.391,0.391,0.391,0.508,0.43,0.352,"C"
"357","H",0.313,0.313,0.156,0.313,0.313,0.508,0.313,0.117,0.117,0.313,0.508,0.508,0.195,0.352,0.313,0.43,0.313,0.625,0.234,"C"
"358","H",0.469,0.234,0.117,0.156,0.273,0.547,0.391,0.273,0.156,0.117,0.156,0.43,0.195,0.273,0.156,0.469,0.391,0.313,0.391,"C"
"359","H",0.469,0.352,0.195,0.156,0.313,0.195,0.508,0.352,0.313,0.391,0.313,0.43,0.273,0.273,0.313,0.352,0.117,0.313,0.391,"C"
"360","H",0.469,0.586,0.352,0.469,0.352,0.625,0.664,0.391,0.547,0.313,0.586,0.43,0.352,0.508,0.469,0.547,0.625,0.352,0.313,"C"
"361","H",0.664,0.117,0.664,0.117,0.156,0.117,0.742,0,0.547,0.234,0.195,0.508,0.352,0.352,0.273,0.43,0.117,0.469,0.195,"C"
"362","H",0.273,0.156,0.664,0.313,0.156,0.234,0.469,0.078,0.273,0.234,0.273,0.586,0.156,0.586,0.234,0.547,0.078,0.43,0.234,"C"
"363","H",0.625,0.352,0.664,0.391,0.195,0.313,0.586,0.078,0.43,0.313,0.234,0.781,0.313,0.43,0.313,0.469,0.234,0.508,0.273,"C"
"364","H",0.547,0.156,0.664,0.156,0.156,0.156,0.586,0,0.195,0.352,0.195,0.664,0.039,0.469,0.313,0.352,0.156,0.664,0.508,"C"
"365","H",0.43,0.117,0.82,0.391,0.313,0.234,0.586,0.078,0.313,0.156,0.313,0.664,0.117,0.703,0.391,0.469,0.117,0.43,0.195,"C"
"366","H",0.43,0.313,1.133,0.156,0.156,0.43,0.859,0.078,0.43,0.234,0.195,0.508,0.273,0.547,0.313,0.469,0.313,0.625,0.313,"C"
"367","H",0.547,0.234,0.742,0.195,0.195,0.234,0.625,0.156,0.508,0.078,0.391,0.547,0.156,0.43,0.43,0.391,0.352,0.313,0.469,"C"
"368","H",0.234,0.117,0.43,0.313,0.391,0.234,0.43,0.156,0.547,0.273,0.117,0.508,0.234,0.898,0.469,0.508,0.078,0.469,0.313,"C"
"369","H",0.547,0.195,0.82,0.352,0.234,0.117,0.586,0.234,0.313,0.156,0.391,0.547,0.234,0.508,0.234,0.586,0.313,0.664,0.117,"C"
"370","H",0.625,0.195,0.703,0.117,0.195,0.078,0.664,0.195,0.313,0.195,0.117,0.313,0.117,0.469,0.273,0.313,0.039,0.352,0.156,"C"
"371","H",0.508,0.078,0.391,0.273,0.234,0.117,0.625,0.156,0.43,0.313,0.273,0.43,0.391,0.352,0.234,0.43,0.117,0.195,0.195,"C"
"372","H",0.742,0.313,0.703,0.273,0.195,0.195,0.469,0.391,0.469,0.195,0.273,0.625,0.469,0.273,0.313,0.43,0.391,0.469,0.234,"C"
"373","H",0.391,0.078,0.469,0.234,0.156,0.156,0.469,0.156,0.508,0.156,0.508,0.898,0.234,0.508,0.234,0.391,0.234,0.469,0.195,"C"
"374","H",0.469,0.156,0.43,0.117,0.469,0.156,0.664,0.43,0.625,0.195,0.43,0.625,0.234,0.352,0.313,0.195,0.273,0.586,0.273,"C"
"375","H",0.703,0.156,0.781,0.313,0.352,0.234,0.625,0.508,0.273,0.234,0.43,0.547,0.234,0.625,0.273,0.352,0.313,0.586,0.273,"C"
"376","H",0.195,0.234,0.742,0.156,0.195,0.195,0.82,0.234,0.352,0.273,0.391,0.547,0.195,0.938,0.391,0.234,0.117,0.43,0.547,"C"
"377","H",0.508,0.313,0.508,0.156,0.313,0.117,0.82,0.156,0.313,0.195,0.273,0.898,0.039,0.391,0.273,0.43,0.195,0.391,0.43,"C"
"378","H",0.781,0.273,0.82,0.195,0.195,0.273,0.664,0.352,0.195,0.234,0.273,0.703,0.195,0.82,0.352,0.586,0.273,0.703,0.156,"C"
"379","D",0,0.039,0,0,0,0.039,0.078,0.039,0,0.039,0.195,0,0,0.039,0,0,0.156,0,0,"C"
"380","D",0.078,0,0,0,0.234,0,0,0.039,0.039,0.273,0.039,0.039,0,0,0,0,0,0,0,"C"
"381","D",0.156,0.117,0,0,0.039,0.117,0.156,0,0,0,0.352,0.078,0.078,0.195,0.078,0,0.273,0.195,0.117,"C"
"382","D",0,0.039,0,0.039,0,0,0,0.039,0.195,0.195,0,0,0,0,0,0,0,0,0,"C"
"383","D",0,0,0,0,0.039,0,0,0.039,0.078,0.117,0.039,0,0,0,0,0.117,0,0,0.039,"C"
"384","D",0.039,0,0.117,0.313,0.234,0,0.078,0.078,0.156,0.039,0.039,0.156,0.313,0.078,0.117,0.195,0.039,0.117,0.234,"C"
"385","D",0,0.117,0.078,0.078,0.117,0,0,0.039,0,0.039,0,0,0.117,0,0,0,0,0,0,"C"
"386","D",0.039,0.078,0,0,0.078,0,0.039,0.039,0.156,0.078,0,0.078,0,0.117,0.078,0.156,0.039,0.039,0.039,"C"
"387","D",0,0,0,0,0,0.039,0.039,0,0,0,0,0,0,0.117,0,0.078,0,0,0,"C"
"388","D",0.117,0.039,0.156,0.234,0.078,0.117,0.039,0.039,0,0,0.117,0.156,0.195,0,0.078,0.156,0.156,0.195,0.117,"C"
"389","D",0,0.039,0,0,0,0.078,0.039,0,0.039,0,0.078,0,0,0.039,0,0,0.078,0,0,"C"
"390","D",0,0,0,0,0,0,0,0.078,0,0,0,0,0.156,0,0,0,0,0,0,"C"
"391","D",0.039,0,0.039,0,0.078,0.156,0,0.078,0,0,0,0,0,0,0,0,0,0,0,"C"
"392","D",0,0,0.078,0.039,0.039,0,0.039,0.195,0,0.039,0,0.078,0.156,0.078,0,0.117,0,0.234,0.039,"C"
"393","D",0,0,0,0.156,0,0.156,0.078,0.039,0.039,0.039,0,0,0.078,0.078,0,0.039,0.078,0.039,0,"C"
"394","D",0,0,0,0.039,0,0,0,0,0.039,0.039,0.039,0.078,0.039,0.039,0.039,0,0.039,0,0.039,"C"
"395","D",0,0.039,0.078,0,0,0.039,0,0.039,0,0,0.039,0.039,0,0,0.039,0.039,0.156,0,0,"C"
"396","D",0.078,0,0,0.195,0.117,0,0,0,0.039,0.039,0,0,0.156,0.117,0,0,0,0,0,"C"
"397","D",0,0,0,0,0,0,0,0,0,0.078,0.039,0,0,0,0,0,0,0,0,"C"
"398","D",0.078,0.039,0.039,0.078,0.078,0.039,0.117,0.078,0,0.039,0.078,0.078,0.039,0.039,0.039,0,0.078,0.078,0,"C"
"399","D",0,0.039,0,0.078,0.039,0,0,0,0,0.039,0,0,0,0,0,0,0,0,0,"C"
"400","D",0.078,0.039,0.078,0.117,0.039,0.039,0.039,0.078,0.039,0,0,0.039,0.039,0,0,0,0.117,0.039,0.039,"C"
"401","D",0,0.039,0.117,0,0.039,0.039,0,0,0.195,0.43,0.039,0,0.078,0,0.078,0.391,0,0.117,0.117,"C"
"402","D",0.195,0.078,0.195,0.078,0.039,0.273,0.117,0,0,0,0.117,0.078,0.078,0.117,0.117,0.078,0.078,0.078,0.078,"C"
"403","D",0,0.039,0,0,0,0.039,0,0.195,0,0,0,0,0,0.117,0,0,0,0,0,"C"
"404","D",0.078,0.039,0,0.078,0.039,0.078,0,0,0.273,0.234,0.078,0.039,0.039,0.117,0,0.156,0.078,0.117,0.117,"C"
"405","D",0.039,0,0,0,0,0.078,0.039,0,0,0,0.078,0.039,0,0.234,0.039,0.039,0.195,0.039,0.039,"C"
"406","D",0,0.039,0,0,0,0,0,0,0,0,0,0,0,0,0,0,0,0,0,"C"
"407","D",0,0,0,0,0.117,0.039,0,0,0,0.039,0,0,0,0,0,0,0,0,0,"C"
"408","D",0,0,0,0.156,0.078,0,0,0.078,0,0,0,0,0.156,0,0.039,0.039,0,0,0,"C"
"409","D",0.039,0,0,0,0.039,0.039,0.078,0.117,0.039,0,0,0,0,0.195,0.273,0,0,0,0,"C"
"410","D",0.078,0.117,0.078,0.156,0.156,0.039,0,0.117,0.156,0.039,0.078,0.078,0.117,0.078,0.078,0.156,0.078,0.039,0,"C"
"411","D",0,0,0.039,0,0,0.117,0.039,0.078,0.078,0.078,0,0,0,0,0.039,0.117,0,0.078,0,"C"
"412","D",0,0,0,0,0,0,0,0,0,0,0,0,0,0,0,0,0,0,0,"C"
"413","D",0,0.117,0.117,0,0,0.039,0,0,0,0,0.039,0.039,0,0,0,0,0.039,0.039,0.039,"C"
"414","D",0.078,0.039,0,0.039,0.039,0.078,0,0,0,0.078,0.039,0,0.078,0,0,0,0,0,0,"C"
"415","H",0.352,0.664,0.703,0.156,0.391,0.234,0.82,0.625,0.586,0.117,0.859,0.898,0.078,0.781,0.586,0.391,0.313,0.391,0.703,"C"
"416","H",0.313,0.547,0.469,0.039,0.313,0.156,0.391,0.313,0.859,0.078,0.508,0.547,0,0.938,0.703,0.313,0,0.43,0.625,"C"
"417","H",0.547,0.313,0.781,0.156,0.352,0.273,0.664,0.469,0.469,0.117,0.664,0.781,0.078,0.82,0.742,0.391,0.195,0.352,0.898,"C"
"418","H",0.234,0.625,0.898,0.117,0.391,0.195,0.664,0.469,0.234,0.156,0.547,0.625,0,0.82,0.586,0.313,0.156,0.273,0.781,"C"
"419","H",0.352,0.508,0.703,0.273,0.352,0.313,0.625,0.469,0.469,0.195,0.703,0.547,0.117,0.898,0.547,0.313,0.273,0.508,0.469,"C"
"420","H",0.391,0.313,0.586,0.039,0.156,0.195,0.781,0.625,0.43,0.195,0.703,0.82,0.039,0.781,0.547,0.195,0.078,0.273,0.664,"C"
"421","H",0.469,0.703,0.664,0.078,0.313,0.195,0.703,0.508,0.313,0.273,0.508,0.898,0.117,1.016,0.859,0.547,0.195,0.352,0.781,"C"
"422","H",0.391,0.234,0.43,0.195,0.43,0.195,0.547,0.273,0.508,0.156,0.273,0.117,0.195,0.547,0.273,0.273,0.273,0.508,0.469,"C"
"423","H",0.547,0.586,1.016,0.195,0.391,0.078,0.859,0.547,0.352,0.156,0.938,1.016,0.078,1.055,0.547,0.469,0.078,0.547,0.781,"C"
"424","H",0.586,0.664,0.664,0.234,0.352,0.273,0.547,0.508,0.625,0.156,0.195,0.703,0.117,0.391,0.508,0.391,0.117,0.391,0.664,"C"
"425","H",0.43,0.664,0.977,0.234,0.742,0.195,0.703,0.469,0.742,0.195,0.703,0.859,0.156,0.703,0.508,0.703,0.234,0.547,0.898,"C"
"426","H",0.391,0.43,0.664,0.234,0.273,0.156,0.469,0.547,0.586,0.273,0.508,0.898,0.078,0.664,0.508,0.508,0.234,0.547,0.586,"C"
"427","H",0.156,0.547,0.938,0.195,0.313,0.234,0.742,0.742,0.664,0.156,0.586,0.82,0.039,0.859,1.016,0.352,0.117,0.43,0.664,"C"
"428","H",0.586,0.43,0.586,0.156,0.586,0.391,0.547,0.508,0.898,0.273,0.664,0.898,0.117,1.172,0.273,0.508,0.273,0.508,0.469,"C"
"429","H",0.352,0.43,1.094,0.273,0.625,0.352,0.781,0.547,0.625,0.313,0.664,0.859,0.234,0.82,0.781,0.469,0.117,0.625,0.586,"C"
"430","H",0.391,0.977,0.508,0.156,0.313,0.195,0.469,0.508,0.586,0.156,0.625,0.781,0,0.898,0.469,0.313,0.234,0.391,0.703,"C"
"431","H",0.469,0.781,0.664,0.156,0.391,0.156,0.898,0.625,0.547,0.313,0.781,0.742,0.117,0.508,0.742,0.469,0.273,0.469,0.82,"C"
"432","H",0.352,0.859,0.859,0,0.586,0.078,0.703,0.547,0.469,0.234,0.82,0.547,0,0.742,0.859,0.234,0.234,0.469,0.703,"C"
"433","D",0.039,0.078,0.078,0.117,0.234,0,0.078,0.039,0.078,0.273,0.117,0.039,0.039,0.117,0.039,0.234,0.117,0.117,0.078,"C"
"434","D",0.117,0.078,0,0.156,0.117,0,0.078,0.078,0,0.195,0.156,0.117,0.234,0.117,0.117,0.117,0.117,0.156,0.039,"C"
"435","D",0.234,0.195,0.156,0.273,0.43,0,0.078,0.195,0.43,0.234,0.078,0.039,0.195,0.234,0.078,0.195,0.313,0.078,0.156,"C"
"436","D",0.156,0.234,0.195,0.117,0.195,0.039,0.078,0.156,0.313,0.117,0.195,0.156,0.156,0.273,0.039,0.117,0.313,0.078,0.273,"C"
"437","D",0.234,0.234,0.078,0.078,0.352,0,0.039,0.039,0.391,0.156,0.195,0.234,0.273,0.195,0.117,0.469,0.117,0.117,0.078,"C"
"438","D",0.195,0.195,0,0.117,0.156,0.039,0.195,0.117,0.117,0.352,0.078,0.234,0.117,0.117,0.195,0.156,0.234,0.117,0.273,"C"
"439","D",0.117,0.273,0.078,0.234,0.156,0,0.156,0.117,0.234,0.391,0.352,0.156,0.195,0.195,0.117,0.078,0.117,0.156,0.234,"C"
"440","D",0.156,0.078,0.039,0.117,0.117,0.078,0.039,0.039,0.117,0.195,0.195,0.156,0.039,0.078,0.039,0.391,0.156,0.117,0.078,"C"
"441","D",0.391,0.156,0.039,0.156,0.313,0.078,0.039,0.117,0.234,0.234,0.156,0.039,0.156,0.078,0.039,0.234,0.234,0.156,0.156,"C"
"442","D",0.273,0.078,0.078,0.195,0.078,0.078,0.234,0.039,0.156,0.078,0.313,0.039,0.195,0.039,0.195,0.156,0.195,0.195,0.156,"C"
"443","D",0.352,0.156,0.039,0.117,0.195,0.039,0.117,0.039,0.195,0.273,0.195,0.078,0.313,0.039,0.078,0.273,0.195,0.273,0.234,"C"
"444","D",0.117,0.313,0.039,0.078,0.117,0.039,0.078,0.039,0.156,0.039,0.195,0.078,0.156,0.156,0.039,0.195,0.195,0.195,0.195,"C"
"445","D",0.391,0.078,0.117,0.156,0.117,0,0.117,0,0.195,0.039,0.039,0.117,0.078,0.234,0.039,0.195,0.195,0,0.078,"C"
"446","D",0.156,0.234,0.039,0.117,0.078,0,0,0.156,0.078,0.156,0.234,0.078,0.234,0.273,0.117,0.195,0.195,0.156,0.195,"C"
"447","D",0.313,0.234,0.078,0.078,0.039,0,0.156,0.078,0.117,0.313,0.117,0.117,0.078,0.195,0.078,0.234,0.078,0.078,0.273,"C"
"448","D",0.117,0.078,0.117,0.313,0.156,0.117,0.078,0.078,0.234,0.156,0.156,0.117,0.117,0.156,0,0.156,0.156,0.313,0.195,"C"
"449","D",0.078,0,0,0.039,0.039,0.039,0.156,0.117,0.391,0.156,0.039,0.078,0,0.039,0.078,0.156,0.273,0,0,"C"
"450","D",0.195,0.195,0.039,0.234,0.234,0,0.117,0.078,0.117,0.195,0.117,0.078,0.156,0.117,0.117,0.117,0.195,0.117,0.156,"C"
"451","H",0.078,0.039,0,0,0,0.039,0,0,0.039,0.078,0.078,0,0,0,0.078,0.078,0,0.039,0.078,"C"
"452","H",0.039,0,0.117,0.078,0.078,0.039,0,0.039,0,0.039,0.039,0.078,0.078,0,0.078,0.078,0.039,0.078,0.078,"C"
"453","H",0.039,0,0.078,0.039,0.039,0.039,0,0,0,0.078,0,0.273,0.117,0,0.039,0.117,0,0.039,0.117,"C"
"454","H",0.039,0,0,0,0,0.117,0,0,0,0,0.039,0,0,0.039,0.039,0,0.039,0,0,"C"
"455","H",0.039,0.039,0,0.039,0.039,0,0,0,0.039,0,0,0,0.039,0,0,0,0,0.039,0,"C"
"456","H",0.039,0.039,0,0.352,0.234,0,0,0.039,0.078,0.078,0,0,0.156,0,0,0.117,0,0,0.039,"C"
"457","H",0,0,0,0,0,0,0.234,0,0,0,0,0,0,0.039,0,0,0.039,0,0,"C"
"458","H",0,0,0,0,0,0.117,0,0,0,0,0,0,0,0,0,0,0,0,0,"C"
"459","H",0.039,0,0,0.117,0.273,0,0.078,0,0.234,0.234,0,0,0.039,0.078,0.078,0.078,0.078,0.039,0.039,"C"
"460","H",0.039,0,0,0.195,0.234,0.078,0,0,0,0,0.039,0.039,0.078,0,0,0,0.039,0,0,"C"
"461","H",0.078,0,0,0,0.039,0.078,0,0.078,0,0,0,0,0,0.078,0.078,0.156,0,0,0.078,"C"
"462","H",0.039,0,0.039,0.156,0.117,0,0,0,0.117,0.117,0,0.156,0.195,0,0,0.117,0,0,0.117,"C"
"463","H",0,0,0,0,0,0,0,0,0,0,0,0,0,0,0,0,0.117,0,0,"C"
"464","H",0.039,0,0,0,0,0.078,0,0,0,0.039,0,0.117,0,0,0,0,0,0,0,"C"
"465","H",0.117,0.117,0.156,0,0.078,0,0.039,0,0.156,0,0,0,0,0.039,0,0.039,0.039,0,0,"C"
"466","H",0.195,0.156,0.078,0.039,0,0.078,0.078,0,0.039,0,0.117,0.039,0.156,0.039,0.039,0,0.078,0.078,0.039,"C"
"467","H",0.039,0,0,0.078,0.117,0.039,0,0,0,0,0,0.078,0.039,0.039,0,0,0,0,0,"C"
"468","H",0,0,0,0,0.039,0.039,0,0,0.273,0.195,0,0,0,0,0,0,0,0,0,"C"
"469","H",0.039,0,0,0.313,0.039,0,0,0.078,0.078,0,0.078,0,0.078,0,0,0,0,0,0,"C"
"470","H",0,0.039,0,0,0,0,0,0,0,0,0.039,0,0,0,0,0,0,0,0.039,"C"
"471","H",0.117,0,0.039,0.039,0,0.039,0,0.039,0,0,0,0,0,0.039,0,0,0,0.078,0,"C"
"472","H",0,0.039,0.039,0.078,0.117,0,0,0,0.039,0.117,0,0.039,0.156,0,0,0.039,0,0.039,0.195,"C"
"473","H",0.039,0,0.039,0,0.039,0.117,0,0.078,0,0.039,0.039,0.039,0.078,0.117,0,0.117,0,0,0.039,"C"
"474","H",0.078,0,0,0.039,0,0.078,0.078,0.078,0,0,0,0,0,0.234,0,0,0.039,0.039,0,"C"
"475","H",0.039,0.078,0.078,0,0,0,0,0.039,0,0,0,0.039,0.039,0,0,0,0,0,0,"C"
"476","H",0.039,0.039,0,0,0,0.039,0.039,0.039,0.078,0.078,0.039,0,0,0,0,0.039,0,0,0.039,"C"
"477","H",0,0,0,0.039,0.039,0,0,0.156,0,0.195,0.039,0.039,0.039,0.039,0,0.039,0,0,0,"C"
"478","H",0,0.039,0,0.039,0.078,0,0,0,0.039,0.078,0,0,0.039,0.039,0,0,0,0,0,"C"
"479","H",0.078,0.039,0.039,0,0.039,0.078,0.039,0.039,0.156,0.039,0.039,0.078,0.039,0.039,0.078,0,0.117,0.039,0,"C"
"480","H",0,0.039,0.078,0,0.078,0,0,0.156,0,0,0.039,0.117,0.039,0.039,0.273,0,0.273,0.078,0.078,"C"
"481","H",0.039,0.039,0.117,0,0.117,0.078,0.078,0,0.039,0.078,0,0.039,0.039,0,0.039,0.078,0,0,0.078,"C"
"482","H",0.039,0,0.039,0.078,0.078,0.078,0.117,0.078,0.117,0.117,0.078,0.039,0.078,0.039,0.273,0.078,0.078,0.078,0.234,"C"
"483","H",0,0.039,0.039,0,0.078,0.039,0.039,0,0.078,0.039,0.078,0.078,0.039,0,0,0,0.078,0.039,0.078,"C"
"484","H",0.078,0.078,0,0,0.039,0,0.078,0,0,0.078,0,0,0,0,0,0.156,0,0,0,"C"
"485","H",0,0.039,0.039,0,0,0.039,0.039,0.078,0,0,0.039,0,0.117,0,0.078,0,0,0,0,"C"
"486","H",0.039,0,0,0,0.156,0.039,0,0.078,0,0.156,0.039,0.117,0.117,0.039,0,0.039,0,0.039,0,"C"
"487","H",0,0.039,0.078,0.039,0,0,0.039,0,0.039,0,0.078,0.039,0,0.039,0.039,0,0.039,0.078,0,"C"
"488","H",0,0.039,0,0,0.078,0,0.039,0.039,0.078,0.156,0,0,0,0,0,0.039,0.039,0.039,0,"C"
"489","H",0,0,0.039,0.039,0,0.078,0.078,0.273,0.078,0,0,0.039,0,0,0,0,0,0,0,"C"
"490","H",0.039,0,0,0.039,0.078,0,0.039,0.117,0.078,0,0.039,0,0.039,0,0,0,0,0,0.039,"C"
"491","H",0.117,0.078,0.039,0.078,0.156,0.078,0,0.039,0,0.273,0.234,0.039,0.117,0,0.078,0.195,0.078,0.156,0.156,"C"
"492","H",0.078,0.039,0,0.078,0,0.039,0.039,0.117,0.391,0.117,0.078,0.039,0,0.039,0.039,0.234,0.078,0.078,0.195,"C"
"493","H",0,0.078,0.078,0.039,0,0,0,0.039,0.039,0,0.078,0.039,0,0,0,0,0,0.039,0,"C"
"494","H",0.078,0.078,0,0.039,0,0.117,0.039,0,0.039,0.117,0.078,0.078,0.039,0.039,0.039,0,0.078,0.078,0.039,"C"
"495","H",0.039,0,0,0.078,0.156,0,0.078,0.039,0.195,0.117,0,0,0.117,0,0,0.117,0,0,0.039,"C"
"496","H",0.156,0,0.117,0,0,0.117,0.039,0.039,0.039,0,0.078,0,0.039,0.156,0,0.039,0,0.195,0.039,"C"
"497","H",0,0,0.078,0.039,0.039,0,0,0,0.117,0.117,0,0,0.039,0,0,0.039,0,0.039,0.039,"C"
"498","H",0,0.078,0.039,0.039,0.039,0.078,0,0.078,0.039,0,0.078,0.078,0.039,0,0.039,0,0.078,0,0.039,"C"
"499","H",0.078,0,0.039,0.039,0,0,0.039,0.078,0.039,0.039,0,0,0,0,0,0,0,0.078,0.039,"C"
"500","H",0.039,0.078,0,0,0,0.039,0.156,0,0,0,0.039,0,0,0.039,0.039,0,0.078,0,0,"C"
"501","H",0.039,0,0,0,0,0.039,0.078,0.078,0.039,0.156,0.039,0.156,0.078,0,0.039,0.195,0.078,0.156,0.039,"C"
"502","H",0.039,0.078,0,0.117,0.039,0,0,0.078,0.039,0,0.078,0.078,0,0,0,0,0.039,0,0,"C"
"503","H",0.039,0.156,0.078,0,0.039,0.039,0,0.039,0.039,0.039,0.156,0.039,0.039,0.039,0,0.039,0.039,0,0,"C"
"504","H",0.039,0.078,0.039,0.117,0.117,0.078,0,0.117,0.039,0.039,0,0.039,0,0.039,0,0.078,0,0.117,0.078,"C"
"505","H",0.039,0,0.039,0.039,0.039,0.078,0.117,0.039,0.078,0,0.117,0.078,0.039,0.078,0.078,0.039,0.039,0.039,0.039,"C"
"506","H",0.078,0.078,0.117,0,0,0.078,0.039,0,0.039,0.039,0.039,0.039,0.039,0.039,0.039,0,0.078,0.039,0.117,"C"
"507","H",0.078,0.117,0.039,0.078,0,0.039,0.078,0.078,0.039,0.039,0.078,0.078,0.039,0.039,0.078,0,0.078,0.039,0,"C"
"508","H",0.078,0,0.117,0.039,0.039,0,0,0,0,0,0,0,0.078,0.078,0.039,0,0,0.039,0.039,"C"
"509","H",0,0,0.078,0.039,0.039,0,0,0.078,0.039,0.078,0.039,0,0.039,0,0.117,0,0.078,0,0,"C"
"510","H",0.078,0.078,0.078,0.039,0.078,0.117,0.039,0.039,0.156,0.117,0.078,0.039,0.039,0.039,0.039,0.078,0.078,0,0.078,"C"
"511","H",0.039,0.039,0,0.078,0.117,0.039,0.078,0.117,0.039,0.039,0,0,0.078,0,0.078,0.039,0,0,0,"C"
"512","H",0.039,0.039,0.039,0,0.039,0.078,0.117,0.039,0,0.039,0.039,0.039,0,0.117,0.039,0.039,0.078,0.039,0,"C"
"513","H",0.078,0.078,0.039,0,0,0.039,0.078,0.039,0,0.039,0,0,0,0.078,0,0,0,0,0,"C"
"514","H",0.039,0,0.039,0,0.039,0.039,0.039,0.117,0.039,0,0,0.078,0,0.039,0.078,0,0.156,0.117,0.039,"C"
"515","H",0.039,0,0,0.039,0,0.039,0.039,0,0,0,0.039,0,0,0,0.039,0,0,0.078,0.039,"C"
"516","H",0.078,0.039,0,0.117,0.039,0.078,0.117,0.078,0.078,0,0,0,0,0.039,0.039,0.039,0,0,0,"C"
"517","H",0.117,0.078,0,0,0,0.039,0,0,0,0,0,0.039,0.078,0.078,0.039,0,0,0.039,0,"C"
"518","H",0,0.039,0.195,0.117,0.117,0.039,0,0.078,0.078,0.156,0,0.039,0.039,0,0,0.039,0,0.039,0.078,"C"
"519","H",0.117,0.039,0.039,0.078,0.078,0.039,0,0.039,0.039,0.078,0.039,0.039,0.039,0,0.039,0.078,0,0.078,0.039,"C"
"520","H",0.039,0,0,0.117,0.117,0.039,0,0.117,0.039,0.039,0,0.039,0.078,0,0.078,0.039,0,0.039,0.117,"C"
"521","H",0,0,0.039,0.039,0,0.078,0.039,0.039,0.039,0.039,0,0,0.039,0,0.039,0.039,0,0,0,"C"
"522","H",0,0,0,0.039,0,0,0,0,0,0,0,0,0,0,0,0,0,0,0,"C"
"523","D",0.234,0,0,0.039,0.039,0.273,0.039,0.156,0.078,0.039,0,0.078,0.117,0.273,0.117,0.117,0.273,0.313,0.078,"C"
"524","D",0.039,0.078,0,0.078,0.039,0.039,0.039,0.039,0.117,0.039,0,0.117,0.156,0.039,0.078,0.234,0.039,0.039,0.156,"C"
"525","D",0.078,0,0,0.039,0.039,0.078,0.078,0.039,0.078,0.039,0.156,0.117,0.078,0.156,0.078,0.117,0.195,0.117,0.078,"C"
"526","D",0.039,0,0,0.078,0.117,0.039,0,0.039,0,0.039,0.078,0,0.039,0,0.039,0.078,0.039,0.039,0.039,"C"
"527","D",0,0.039,0.078,0.078,0.039,0,0,0.273,0.078,0,0,0,0.078,0,0,0,0.039,0,0.078,"C"
"528","D",0.117,0.078,0,0,0,0.117,0.078,0,0.039,0.039,0,0.039,0.156,0.039,0.039,0.078,0,0,0.039,"C"
"529","D",0.117,0,0.117,0.156,0.117,0.078,0.039,0.039,0.117,0,0,0.117,0.234,0,0,0.078,0.039,0.039,0.078,"C"
"530","D",0.273,0.117,0.078,0,0.117,0.078,0.078,0.195,0.039,0.078,0.195,0,0,0.156,0.117,0.039,0.117,0.039,0.117,"C"
"531","D",0.039,0,0,0,0,0.156,0.117,0.039,0,0,0.078,0.039,0.039,0.039,0,0.039,0.117,0.117,0,"C"
"532","D",0.039,0,0,0,0,0.039,0,0.039,0,0,0,0.039,0,0,0.039,0.039,0.039,0,0,"C"
"533","D",0.078,0,0.039,0,0,0,0.039,0,0,0,0.078,0.039,0.156,0,0,0.078,0,0.039,0.039,"C"
"534","D",0.117,0.039,0.078,0,0.117,0.039,0,0.039,0.117,0,0,0.039,0.039,0.039,0,0,0,0,0.078,"C"
"535","D",0.039,0.039,0.039,0.039,0.117,0.117,0.039,0.078,0.078,0.078,0.039,0.039,0.039,0.156,0.078,0.117,0.117,0.039,0.117,"C"
"536","D",0.195,0.039,0.117,0.039,0,0.039,0.078,0,0,0,0.156,0,0.039,0,0,0.039,0.117,0,0,"C"
"537","D",0.078,0.117,0.039,0.078,0.039,0.273,0.039,0.078,0.078,0.039,0.117,0.039,0.039,0.078,0.039,0.156,0.078,0.039,0.039,"C"
"538","D",0,0,0,0.039,0,0.039,0,0,0.117,0,0.078,0.078,0.078,0.117,0.117,0,0.039,0.078,0.078,"C"
"539","D",0.039,0.078,0.039,0.039,0.156,0.117,0.078,0,0.078,0.039,0.078,0.078,0.039,0,0,0.117,0.078,0.039,0.039,"C"
"540","D",0.078,0.078,0.234,0.039,0.039,0.039,0,0.078,0.078,0.039,0.078,0.117,0.039,0.039,0.117,0.117,0.078,0.039,0.039,"C"
"541","H",0.273,0.156,0.313,0.352,0.273,0.195,0.078,0.273,0.156,0.156,0.039,0.117,0.391,0.273,0.391,0.313,0.391,0.313,0.234,"C"
"542","H",0.117,0.117,0.195,0.313,0.273,0.273,0.156,0.313,0.273,0.234,0.156,0.234,0.43,0.117,0.273,0.195,0.547,0.43,0.273,"C"
"543","H",0.117,0.117,0.234,0.195,0.078,0.195,0.117,0.078,0.117,0.273,0.195,0.039,0.234,0.195,0.039,0.117,0.43,0.273,0.195,"C"
"544","H",0.156,0.117,0.352,0.273,0.156,0.313,0.273,0.234,0.117,0.234,0.117,0.156,0.195,0.234,0.117,0.156,0.313,0.273,0.156,"C"
"545","H",0.195,0.078,0.234,0.117,0.156,0.156,0.234,0.078,0.195,0.156,0.039,0.156,0.156,0.078,0.117,0.039,0.078,0.117,0.117,"C"
"546","H",0.117,0.156,0.508,0.234,0.234,0.391,0.352,0.195,0.195,0.078,0.156,0.156,0.117,0.195,0.391,0.117,0.195,0.469,0.234,"C"
"547","H",0.195,0.156,0.352,0.313,0.43,0.156,0.156,0.352,0.352,0.156,0.156,0.273,0.234,0.234,0.352,0.195,0.391,0.43,0.234,"C"
"548","H",0.469,0.039,0.195,0.43,0.078,0.313,0.313,0.234,0.273,0.313,0.156,0.156,0.234,0.352,0.234,0.313,0.391,0.547,0.234,"C"
"549","H",0.195,0.156,0.234,0.273,0.156,0.117,0.273,0.117,0.156,0.117,0.117,0.195,0.195,0.469,0.273,0.078,0.234,0.234,0.117,"C"
"550","H",0.156,0.195,0.234,0.156,0.195,0.195,0.43,0.117,0.156,0.352,0.078,0.352,0.156,0.391,0.117,0.078,0.156,0.156,0.195,"C"
"551","H",0.117,0.117,0.195,0.273,0.117,0.273,0.234,0.195,0.117,0.195,0.039,0.234,0.195,0.43,0.195,0.195,0.156,0.391,0.156,"C"
"552","H",0.117,0.039,0.313,0.117,0.117,0.039,0.352,0.234,0.117,0.117,0.117,0.273,0.352,0.273,0.195,0.117,0.273,0.352,0.234,"C"
"553","H",0.156,0.078,0.43,0.195,0.078,0.039,0.313,0.039,0.156,0.078,0.156,0.352,0.195,0.039,0.195,0.156,0.352,0.195,0.117,"C"
"554","H",0.078,0.234,0.117,0.43,0.117,0.234,0.195,0.117,0.117,0.117,0.156,0.234,0.039,0.234,0.156,0.234,0.234,0.156,0.234,"C"
"555","H",0.156,0.195,0.117,0.273,0.078,0.039,0.273,0,0.313,0.273,0.039,0.234,0.195,0.195,0.195,0.078,0.273,0.117,0.078,"C"
"556","H",0.273,0.078,0.078,0.117,0.156,0.195,0.234,0.156,0.156,0.156,0.039,0.234,0.391,0.195,0.117,0.234,0.352,0.273,0.234,"C"
"557","H",0.117,0.117,0.195,0.117,0.156,0.117,0.195,0.156,0.156,0.156,0.117,0.313,0.43,0.273,0.117,0.313,0.313,0.469,0.195,"C"
"558","H",0.195,0.273,0.313,0.156,0.156,0.195,0.313,0.117,0.352,0.156,0.117,0.195,0.273,0.273,0.391,0.234,0.078,0.234,0.117,"C"
"559","H",0.039,0.039,0,0.078,0.039,0,0.039,0.039,0,0,0,0,0.078,0.078,0,0.039,0,0.039,0.039,"C"
"560","H",0.078,0.039,0.039,0,0,0,0.078,0,0.156,0,0.039,0.078,0.039,0.039,0,0,0.039,0.117,0.078,"C"
"561","H",0,0.039,0.039,0.039,0.039,0,0,0.078,0.039,0,0.039,0.117,0.195,0,0,0,0.078,0,0.156,"C"
"562","H",0.039,0,0,0.078,0,0.039,0,0,0.078,0,0,0,0.039,0,0,0,0,0,0,"C"
"563","H",0,0,0.039,0.039,0,0.039,0,0.078,0.039,0.078,0,0.039,0.039,0.039,0.039,0,0,0,0,"C"
"564","H",0.078,0,0.078,0,0.039,0.039,0.039,0,0.039,0.039,0.039,0.156,0.039,0,0,0,0.078,0,0,"C"
"565","H",0.117,0.156,0.039,0.156,0.078,0.078,0.039,0.039,0.039,0.117,0.078,0.156,0.156,0.078,0.039,0.078,0,0,0.117,"C"
"566","H",0,0.039,0.039,0.039,0.039,0,0.039,0.039,0,0,0,0.039,0,0.039,0,0.039,0.039,0.039,0,"C"
"567","H",0.039,0.039,0.117,0,0,0.039,0.039,0.117,0,0.039,0,0.039,0,0.039,0,0,0,0,0,"C"
"568","H",0.078,0.039,0,0,0.078,0.039,0.039,0.039,0.273,0.156,0.078,0.039,0,0.117,0.117,0.156,0.039,0.078,0.117,"C"
"569","H",0.078,0.039,0.039,0,0.039,0,0,0,0,0.039,0,0,0,0,0,0,0,0,0,"C"
"570","H",0.078,0.117,0,0.039,0.078,0.117,0.039,0.039,0.078,0.039,0.039,0.039,0.039,0,0,0.039,0.039,0,0,"C"
"571","H",0.039,0,0.078,0.156,0.117,0.078,0.078,0,0.039,0.078,0,0,0.195,0,0,0.039,0,0.039,0.039,"C"
"572","H",0.117,0.078,0,0.039,0.078,0.117,0.117,0.117,0.078,0.039,0.039,0.039,0,0,0.039,0,0.039,0.039,0.117,"C"
"573","H",0,0.039,0,0,0,0.039,0,0.039,0,0.039,0,0,0,0,0.039,0.039,0,0,0,"C"
"574","H",0.078,0.078,0.039,0,0.039,0.039,0,0,0,0.078,0.078,0,0.039,0,0.039,0.117,0,0,0.117,"C"
"575","H",0.039,0,0,0,0,0,0.039,0.039,0.078,0,0.039,0.039,0.039,0.039,0,0.039,0.039,0.156,0,"C"
"576","H",0.078,0.078,0.117,0,0,0.039,0.078,0.039,0,0.078,0.039,0,0,0.039,0.078,0.078,0.078,0.078,0.039,"C"
"577","H",0.078,0.039,0,0,0,0.039,0,0,0.039,0.078,0.078,0,0,0,0.078,0.078,0,0.039,0.078,"C"
"578","H",0.039,0,0.117,0.078,0.078,0.039,0,0.039,0,0.039,0.039,0.078,0.078,0,0.078,0.078,0.039,0.078,0.078,"C"
"579","H",0.039,0,0.078,0.039,0.039,0.039,0,0,0,0.078,0,0.273,0.117,0,0.039,0.117,0,0.039,0.117,"C"
"580","H",0.039,0,0,0,0,0.117,0,0,0,0,0.039,0,0,0.039,0.039,0,0.039,0,0,"C"
"581","H",0.039,0.039,0,0.039,0.039,0,0,0,0.039,0,0,0,0.039,0,0,0,0,0.039,0,"C"
"582","H",0.039,0.039,0,0.352,0.234,0,0,0.039,0.078,0.078,0,0,0.156,0,0,0.117,0,0,0.039,"C"
"583","H",0,0,0,0,0,0,0.234,0,0,0,0,0,0,0.039,0,0,0.039,0,0,"C"
"584","H",0,0,0,0,0,0.117,0,0,0,0,0,0,0,0,0,0,0,0,0,"C"
"585","H",0.039,0,0,0.117,0.273,0,0.078,0,0.234,0.234,0,0,0.039,0.078,0.078,0.078,0.078,0.039,0.039,"C"
"586","H",0.039,0,0,0.195,0.234,0.078,0,0,0,0,0.039,0.039,0.078,0,0,0,0.039,0,0,"C"
"587","H",0.078,0,0,0,0.039,0.078,0,0.078,0,0,0,0,0,0.078,0.078,0.156,0,0,0.078,"C"
"588","H",0.039,0,0.039,0.156,0.117,0,0,0,0.117,0.117,0,0.156,0.195,0,0,0.117,0,0,0.117,"C"
"589","H",0,0,0,0,0,0,0,0,0,0,0,0,0,0,0,0,0.117,0,0,"C"
"590","H",0.039,0,0,0,0,0.078,0,0,0,0.039,0,0.117,0,0,0,0,0,0,0,"C"
"591","H",0.117,0.117,0.156,0,0.078,0,0.039,0,0.156,0,0,0,0,0.039,0,0.039,0.039,0,0,"C"
"592","H",0.195,0.156,0.078,0.039,0,0.078,0.078,0,0.039,0,0.117,0.039,0.156,0.039,0.039,0,0.078,0.078,0.039,"C"
"593","H",0.039,0,0,0.078,0.117,0.039,0,0,0,0,0,0.078,0.039,0.039,0,0,0,0,0,"C"
"594","H",0,0,0,0,0.039,0.039,0,0,0.273,0.195,0,0,0,0,0,0,0,0,0,"C"
"595","H",0.117,0.273,0.156,0.156,0.156,0.117,0.039,0.078,0.039,0.117,0.078,0.234,0.117,0.039,0,0.195,0.156,0.117,0.117,"C"
"596","H",0.039,0.078,0.234,0,0.039,0.234,0,0.039,0,0,0.117,0.117,0,0.156,0,0,0.156,0.117,0.156,"C"
"597","H",0,0.117,0.156,0.039,0.117,0.156,0.039,0,0,0.039,0.156,0.078,0.078,0.156,0.078,0.156,0.195,0.117,0.117,"C"
"598","H",0.117,0.117,0.195,0.117,0.078,0,0.039,0.117,0.078,0.117,0.078,0.195,0.039,0.078,0.078,0.039,0.156,0.078,0.078,"C"
"599","H",0.078,0.234,0.117,0.078,0.117,0,0,0.039,0.078,0.117,0.078,0.195,0.078,0.117,0.078,0.117,0.117,0.039,0.156,"C"
"600","H",0,0.078,0.039,0.156,0.156,0,0.039,0.078,0.039,0.078,0,0.039,0.117,0.039,0.078,0,0.078,0.039,0.078,"C"
"601","H",0.156,0.117,0.117,0.117,0.078,0.078,0.078,0.039,0.078,0.156,0.039,0.273,0.039,0.039,0.039,0.078,0.156,0.078,0.117,"C"
"602","H",0,0.117,0.234,0.117,0.039,0.117,0.039,0.039,0,0.117,0.039,0.195,0.117,0,0.039,0.078,0.039,0.039,0.078,"C"
"603","H",0,0.117,0.234,0.039,0.078,0.078,0.039,0,0.039,0,0.117,0.039,0.039,0,0,0.078,0,0,0.078,"C"
"604","H",0.039,0.156,0.078,0.078,0.117,0,0.078,0,0.039,0.156,0.078,0.234,0,0.078,0.156,0.156,0.273,0.078,0.117,"C"
"605","H",0.039,0.234,0.117,0.039,0.117,0.039,0.039,0,0.039,0.078,0.117,0,0.078,0.078,0.156,0.039,0.078,0.078,0.156,"C"
"606","H",0.078,0.156,0.117,0.039,0.156,0.039,0.039,0.039,0.078,0.078,0.078,0.234,0.117,0.078,0.039,0.117,0.078,0.078,0.078,"C"
"607","H",0.078,0.078,0.195,0.156,0.117,0.039,0,0.039,0,0.078,0.117,0.078,0.039,0,0.039,0.039,0.039,0.039,0.078,"C"
"608","H",0.117,0.078,0.234,0.117,0.078,0.039,0.078,0.039,0,0,0.039,0.078,0.039,0.078,0.078,0.078,0.078,0.078,0.078,"C"
"609","H",0.039,0.039,0.234,0.117,0.078,0.039,0.039,0.078,0.117,0.156,0.039,0.039,0.039,0.039,0.039,0,0.391,0.156,0.117,"C"
"610","H",0.039,0.117,0.352,0.117,0.078,0.078,0.039,0.117,0.039,0.156,0.117,0.117,0.117,0.039,0.039,0.078,0.078,0.039,0.078,"C"
"611","H",0.039,0.039,0.156,0.117,0.078,0.117,0.039,0.039,0,0.117,0.039,0.117,0.156,0.039,0.039,0.039,0.078,0.117,0.156,"C"
"612","H",0.078,0.078,0.234,0.156,0.078,0.195,0.039,0.117,0.078,0.039,0.078,0.078,0.156,0,0.117,0.234,0.039,0.078,0.039,"C"
"613","H",0.273,0,0.078,0.078,0.43,0.117,0.039,0.195,0.391,0.117,0.234,0.195,0.078,0.273,0.156,0.391,0.234,0.273,0.156,"C"
"614","H",0.195,0,0,0.195,0.195,0.117,0.156,0.039,0.156,0,0.195,0.273,0.156,0.039,0.078,0.469,0.117,0.391,0.156,"C"
"615","H",0.195,0.039,0.039,0.156,0.313,0.039,0.078,0.195,0.391,0.039,0.078,0.078,0.234,0.117,0.156,0.508,0.156,0.391,0.117,"C"
"616","H",0.234,0.039,0.078,0.156,0.234,0.078,0.117,0.078,0.469,0.117,0.156,0.117,0.195,0.078,0.117,0.273,0.156,0.273,0.156,"C"
"617","H",0.156,0.078,0.078,0.039,0.352,0.078,0.117,0.078,0.156,0.039,0.078,0.195,0,0.156,0.156,0.234,0.156,0.43,0.156,"C"
"618","H",0,0.039,0.078,0.039,0.313,0.078,0.078,0.313,0.273,0.078,0.156,0.156,0.078,0.156,0.156,0.273,0.156,0.352,0.156,"C"
"619","H",0.195,0.039,0.039,0.078,0.43,0,0.156,0.117,0.313,0.078,0.195,0.234,0.117,0.039,0.039,0.352,0.195,0.586,0.117,"C"
"620","H",0.391,0.195,0.117,0.117,0.313,0.039,0.078,0.156,0.43,0.234,0.078,0.234,0.117,0.195,0.195,0.391,0.117,0.313,0.117,"C"
"621","H",0.273,0.039,0.078,0.039,0.117,0.039,0.156,0.117,0.273,0.117,0.117,0.117,0.117,0.078,0.156,0.273,0.234,0.195,0.078,"C"
"622","H",0.234,0.117,0.039,0.156,0.391,0.039,0.234,0.195,0.352,0.039,0.313,0.039,0.078,0.195,0.117,0.273,0.156,0.43,0.195,"C"
"623","H",0.234,0,0.156,0.117,0.195,0.078,0.195,0.156,0.234,0.117,0.156,0.117,0.078,0.039,0.078,0.313,0.195,0.273,0.039,"C"
"624","H",0.234,0,0.078,0,0.352,0.117,0.313,0.156,0.352,0.156,0.195,0.039,0.117,0.117,0.273,0.273,0.195,0.234,0.117,"C"
"625","H",0.234,0,0.078,0.117,0.156,0.156,0.195,0.117,0.43,0.039,0.078,0.039,0.078,0.078,0,0.352,0.078,0.234,0.156,"C"
"626","H",0.195,0.078,0.195,0.117,0.234,0.078,0.195,0.234,0.547,0.039,0.234,0.234,0.117,0.078,0.078,0.469,0.117,0.352,0.156,"C"
"627","H",0.078,0,0.078,0.195,0.273,0.039,0.234,0.156,0.508,0.117,0.078,0.156,0.234,0.117,0.078,0.391,0.039,0.352,0.039,"C"
"628","H",0.273,0.039,0.078,0.117,0.508,0.117,0.195,0.078,0.508,0.078,0.117,0.156,0.117,0.078,0.078,0.508,0.117,0.313,0.039,"C"
"629","H",0.195,0.039,0.078,0,0.664,0.078,0.43,0.156,0.234,0.078,0.117,0.156,0.156,0.117,0.156,0.391,0.117,0.391,0.039,"C"
"630","H",0.078,0.039,0.039,0.234,0.391,0.039,0.117,0.117,0.313,0.078,0.156,0.234,0.117,0.117,0.156,0.352,0.313,0.469,0.117,"C"
"631","D",0.078,0.039,0.039,0.039,0,0.078,0.039,0,0,0,0.078,0,0.039,0.078,0.039,0,0.078,0.078,0,"C"
"632","D",0.078,0,0,0,0.078,0.078,0.156,0.078,0.117,0.078,0,0.156,0,0.078,0.078,0.156,0,0.078,0.039,"C"
"633","D",0,0,0.078,0.039,0,0,0,0,0,0,0.078,0.078,0,0,0,0,0,0.039,0,"C"
"634","D",0.039,0.039,0.078,0.078,0.078,0.078,0.078,0.273,0.078,0.039,0.039,0.078,0.078,0.039,0.117,0.117,0.039,0.039,0.039,"C"
"635","D",0.039,0,0,0.039,0.039,0,0.039,0.078,0.156,0.117,0,0.039,0.117,0.039,0.117,0.156,0.039,0.156,0.117,"C"
"636","D",0.156,0.078,0,0,0,0.078,0.039,0,0,0,0,0,0,0.078,0,0,0.039,0.078,0,"C"
"637","D",0,0,0.078,0.195,0.078,0.039,0,0.039,0.117,0.156,0,0.039,0.039,0,0,0,0,0,0.156,"C"
"638","D",0,0,0.039,0,0.078,0.039,0,0.078,0.078,0.039,0.039,0,0,0,0,0,0,0,0,"C"
"639","D",0.078,0.078,0,0.156,0.117,0.078,0.039,0,0.078,0.117,0.078,0.195,0.195,0.039,0.078,0.156,0.078,0.117,0.156,"C"
"640","D",0,0,0.117,0,0,0,0,0,0.039,0,0,0,0,0,0,0,0,0,0,"C"
"641","D",0.117,0,0.195,0,0,0.156,0.078,0,0.039,0.039,0.156,0.039,0,0.039,0.156,0.156,0.156,0.156,0.156,"C"
"642","D",0.117,0,0,0.039,0.039,0.078,0.156,0.195,0.078,0.078,0.117,0.117,0.078,0.156,0.117,0.117,0.117,0.117,0.078,"C"
"643","D",0,0,0.039,0.039,0,0,0.039,0,0,0,0,0,0,0,0,0,0,0,0,"C"
"644","D",0,0,0,0,0,0,0.039,0.078,0,0,0,0,0,0,0,0.156,0,0,0,"C"
"645","D",0,0,0.078,0.078,0.039,0,0,0,0.078,0.117,0,0.039,0.039,0,0,0.039,0,0,0,"C"
"646","D",0.078,0.078,0.078,0.039,0,0.078,0.117,0.195,0,0,0.078,0,0.039,0.078,0,0,0.078,0,0,"C"
"647","D",0,0,0,0,0,0,0.078,0,0.039,0,0,0,0,0,0,0,0,0,0,"C"
"648","D",0,0,0,0.039,0,0,0.078,0,0,0,0.039,0,0,0,0,0,0,0,0.039,"C"
"649","D",0,0,0,0,0,0,0,0,0,0.039,0,0,0,0,0,0,0,0,0,"C"
"650","D",0.039,0,0,0,0,0.039,0.078,0,0,0,0,0,0,0.039,0.078,0,0,0,0.039,"C"
"651","D",0.039,0.195,0.039,0,0,0.078,0,0.039,0,0,0.195,0.078,0,0.039,0.039,0,0.156,0.039,0,"C"
"652","D",0.078,0,0,0.156,0.195,0.078,0.039,0,0.234,0.117,0.039,0,0.195,0.039,0.078,0.117,0.039,0.078,0.156,"C"
"653","D",0.039,0,0.039,0,0.117,0,0.039,0,0.078,0.117,0,0.039,0.039,0.078,0.039,0.156,0.039,0.039,0.078,"C"
"654","D",0.234,0.039,0.117,0.039,0.078,0,0,0.039,0.078,0,0.117,0.117,0.039,0,0,0.078,0.195,0.156,0,"C"
"655","D",0.039,0.039,0,0,0,0,0,0,0,0,0.039,0.156,0,0.039,0,0,0.078,0.078,0,"C"
"656","D",0,0,0,0,0,0,0,0,0,0,0,0,0,0,0.039,0,0,0,0,"C"
"657","D",0,0,0,0,0.039,0,0,0,0,0.039,0,0,0,0,0.078,0,0,0.039,0,"C"
"658","D",0,0,0,0.195,0.078,0,0,0,0.078,0.078,0,0,0.039,0,0,0.078,0,0,0.078,"C"
"659","D",0,0,0,0,0,0,0,0.078,0,0,0,0.039,0,0,0,0,0.039,0.039,0,"C"
"660","D",0,0.039,0,0,0.078,0,0,0.117,0.078,0.234,0,0.039,0.039,0,0.039,0.039,0,0.039,0,"C"
"661","D",0,0,0,0,0,0,0,0,0.039,0,0,0,0,0,0,0,0,0,0,"C"
"662","D",0.078,0.156,0.117,0.195,0.078,0.117,0.195,0,0.039,0.039,0.117,0.117,0.039,0.117,0.117,0.039,0.117,0.039,0.078,"C"
"663","D",0.039,0,0.078,0.039,0.078,0,0.156,0,0.039,0.039,0,0.039,0.039,0.039,0.195,0.078,0.078,0.117,0,"C"
"664","D",0.078,0.234,0.078,0.117,0.039,0.039,0.039,0,0.039,0.039,0.117,0.078,0.078,0.039,0.039,0.039,0.078,0.039,0,"C"
"665","D",0.039,0.039,0.039,0,0,0.039,0.078,0.078,0,0.039,0.078,0,0.039,0.039,0.078,0.039,0,0.039,0.039,"C"
"666","D",0.039,0.039,0.117,0,0.117,0.039,0,0.156,0,0.078,0.078,0.039,0,0,0.039,0.156,0.039,0,0,"C"
"667","H",0.078,0.039,0.039,0,0,0.039,0.039,0.078,0,0,0.078,0.039,0,0,0,0,0.039,0,0,"C"
"668","H",0,0,0.039,0,0.039,0,0.039,0.039,0,0.078,0,0,0,0,0.117,0,0.039,0,0,"C"
"669","H",0.078,0.117,0,0.039,0,0.039,0.039,0,0,0,0.273,0.039,0,0.039,0,0,0.039,0,0.039,"C"
"670","H",0,0,0,0,0,0,0,0,0,0,0,0,0,0.039,0,0,0,0.039,0,"C"
"671","H",0.039,0,0.039,0,0,0.039,0.156,0,0,0,0.039,0.078,0.039,0.117,0,0,0.039,0.078,0.039,"C"
"672","H",0.078,0.039,0,0.039,0.039,0.039,0.078,0.117,0.078,0.117,0.039,0.078,0.078,0.078,0.117,0.117,0.078,0.117,0.195,"C"
"673","H",0.078,0.039,0.078,0.078,0.039,0.039,0.195,0,0.078,0.039,0.117,0,0.078,0.234,0,0.039,0.078,0.234,0.039,"C"
"674","H",0,0.039,0,0.039,0.078,0,0.039,0,0.078,0.078,0.078,0.039,0.039,0,0.039,0.039,0,0,0.117,"C"
"675","H",0.234,0.039,0.078,0,0,0.039,0.156,0,0,0,0.195,0.117,0.039,0.039,0.039,0.039,0.117,0.039,0.078,"C"
"676","H",0,0,0,0,0,0,0,0.039,0,0.117,0,0,0,0,0,0,0,0,0,"C"
"677","H",0,0.039,0,0.078,0.078,0,0.078,0.039,0.156,0.195,0.117,0.039,0.078,0.078,0.078,0.078,0.078,0,0.156,"C"
"678","H",0.078,0.078,0.039,0,0.156,0.039,0.039,0.078,0.039,0.039,0.078,0.117,0.117,0.078,0.117,0.078,0.117,0.117,0.117,"C"
"679","H",0,0,0.039,0.039,0.039,0.117,0.039,0.078,0,0,0,0,0,0.078,0,0,0,0,0,"C"
"680","H",0.039,0,0.078,0.078,0,0.078,0.078,0.039,0.117,0.078,0.078,0.078,0.078,0.039,0.039,0.039,0.078,0.078,0.039,"C"
"681","H",0,0.078,0,0.039,0,0.039,0,0,0.039,0,0.039,0,0,0,0,0,0,0,0,"C"
"682","H",0.156,0,0,0,0,0.156,0,0,0,0,0,0.039,0,0,0,0,0,0,0,"C"
"683","H",0,0,0.039,0,0.078,0,0.039,0.039,0.039,0.117,0,0,0,0.039,0.039,0.039,0,0,0,"C"
"684","H",0,0.117,0.039,0,0,0,0,0,0,0,0.117,0.039,0,0,0.117,0,0,0.039,0,"C"
"685","H",0.234,0.625,0.508,0.039,0.43,0.078,0.938,0.781,0.508,0.195,0.625,0.781,0,0.625,0.586,0.313,0,0.156,0.938,"C"
"686","H",0.156,0.742,0.703,0.117,0.469,0,1.055,0.664,0.586,0.078,0.742,0.664,0.078,0.625,0.82,0.117,0,0.156,1.016,"C"
"687","H",0.43,0.547,0.859,0.039,0.352,0.039,0.703,0.703,0.313,0.195,0.977,0.352,0.039,0.508,0.664,0.469,0.039,0.117,0.742,"C"
"688","H",0.313,0.547,0.781,0.117,0.156,0.078,0.82,0.625,0.313,0.117,0.703,0.508,0.078,0.625,0.625,0.156,0,0.352,0.742,"C"
"689","H",0.508,0.742,0.781,0.156,0.234,0.117,0.742,0.82,0.273,0.234,0.664,0.43,0.078,0.547,0.938,0.273,0.078,0.391,0.82,"C"
"690","H",0.352,0.469,0.82,0.117,0.273,0.117,0.82,0.508,0.352,0.117,0.977,0.352,0.039,0.898,0.742,0.078,0.078,0.156,0.469,"C"
"691","H",0.313,0.781,0.859,0.234,0.391,0.273,0.938,0.781,0.508,0.234,0.898,0.664,0.117,0.664,1.055,0.313,0.117,0.273,0.703,"C"
"692","H",0.391,0.742,0.586,0.117,0.234,0.273,1.016,1.016,0.352,0.313,0.742,0.625,0.117,0.43,1.133,0.195,0.117,0.234,0.43,"C"
"693","H",0.273,0.742,0.625,0.039,0.273,0.156,0.938,0.781,0.234,0.195,0.82,0.742,0.039,0.742,1.328,0.234,0.117,0.156,0.859,"C"
"694","H",0.391,0.859,0.938,0.234,0.352,0.117,0.703,0.625,0.352,0.156,0.742,0.586,0.156,0.664,0.664,0.352,0.117,0.078,1.055,"C"
"695","H",0.195,0.938,1.289,0.078,0.313,0.156,0.82,0.859,0.234,0.273,0.742,0.703,0.078,0.859,0.859,0.195,0.078,0.234,0.586,"C"
"696","H",0.313,0.586,0.703,0.078,0.469,0.078,0.938,0.664,0.234,0.117,0.859,0.938,0,0.781,1.211,0.234,0.039,0.195,0.898,"C"
"697","H",0.195,0.898,0.977,0.234,0.313,0.078,1.055,0.664,0.352,0.313,0.82,0.43,0,0.703,0.664,0.234,0,0.273,0.664,"C"
"698","H",0.156,0.742,0.898,0.039,0.313,0.039,0.898,0.703,0.391,0.195,0.82,0.703,0.078,0.703,0.742,0.352,0,0.156,0.742,"C"
"699","H",0.156,0.898,0.859,0.078,0.313,0.039,1.016,0.977,0.234,0.156,0.938,0.586,0.078,0.703,0.781,0.156,0.039,0.195,0.586,"C"
"700","H",0.273,0.664,0.859,0.078,0.195,0.156,0.82,0.938,0.352,0.234,0.859,0.586,0.039,0.508,1.016,0.117,0.039,0.078,0.703,"C"
"701","H",0.352,0.742,0.742,0.195,0.234,0.039,0.859,0.859,0.313,0.156,0.742,0.781,0.039,0.586,1.016,0.195,0.078,0.156,0.547,"C"
"702","H",0.273,0.586,0.781,0.195,0.234,0.078,0.469,0.859,0.234,0.156,0.742,0.625,0.156,0.742,0.859,0.156,0.039,0.234,0.625,"C"
"703","D",0,0.156,0,0,0,0.039,0.039,0.117,0.078,0.078,0.078,0,0,0.039,0.117,0.156,0.078,0.039,0,"C"
"704","D",0.195,0,0,0,0.039,0.117,0.039,0.078,0.117,0,0.039,0.039,0,0.039,0,0.078,0,0,0,"C"
"705","D",0.039,0,0,0.117,0.078,0,0,0,0.078,0.039,0.039,0.039,0.078,0,0.234,0.039,0.039,0.156,0.039,"C"
"706","D",0.078,0.078,0.039,0.117,0.078,0,0,0.039,0.117,0.117,0.039,0.078,0.117,0.039,0,0.117,0.156,0.156,0.078,"C"
"707","D",0.039,0,0.039,0,0,0.039,0.039,0,0,0.078,0.039,0.039,0,0.039,0.039,0,0.039,0.039,0,"C"
"708","D",0.039,0,0.039,0.234,0.195,0.117,0.078,0,0.234,0.195,0.117,0,0.195,0.156,0.195,0.195,0.078,0.234,0.156,"C"
"709","D",0,0.039,0.078,0.117,0.039,0,0,0,0.156,0.039,0,0.039,0.078,0,0,0,0,0.039,0,"C"
"710","D",0.039,0.078,0,0,0,0,0,0,0.156,0.078,0,0.039,0.039,0,0,0,0,0,0,"C"
"711","D",0.039,0.039,0,0.039,0,0,0,0,0.078,0.078,0,0,0,0.039,0,0.117,0,0,0,"C"
"712","D",0,0,0.039,0.078,0,0.039,0,0,0,0,0,0,0.039,0.039,0,0,0,0.078,0,"C"
"713","D",0,0,0.039,0,0,0,0,0,0.039,0,0,0.039,0.039,0,0,0,0,0,0,"C"
"714","D",0,0.039,0,0,0,0,0,0,0,0,0,0,0,0,0,0,0.039,0,0,"C"
"715","D",0.078,0,0,0,0.039,0,0,0,0.078,0.039,0,0,0.039,0.039,0.078,0.039,0.078,0,0,"C"
"716","D",0.039,0.039,0.078,0,0.039,0,0,0.039,0.039,0.117,0.078,0.078,0.078,0,0,0.039,0,0,0.039,"C"
"717","D",0.078,0.078,0.078,0.039,0,0.039,0.117,0.117,0.273,0,0.039,0,0.039,0.117,0.078,0.234,0.039,0.039,0.273,"C"
"718","D",0,0,0.039,0,0.039,0,0,0.039,0,0.039,0,0,0,0,0,0,0,0,0,"C"
"719","D",0.117,0.039,0.039,0,0,0.078,0.117,0.039,0,0,0.039,0.039,0.039,0.078,0.039,0.078,0.078,0.117,0.039,"C"
"720","D",0.039,0,0,0,0,0.039,0,0,0,0,0.078,0,0.195,0.117,0.117,0,0.117,0.078,0,"C"
"721","D",0,0.078,0,0.039,0.117,0,0.039,0,0.078,0.117,0,0,0,0,0,0.078,0,0,0.039,"C"
"722","D",0.117,0,0.078,0.039,0.078,0.117,0.039,0.078,0,0.156,0.078,0.156,0.078,0.039,0.195,0,0.078,0.117,0.039,"C"
"723","D",0,0.039,0,0,0.078,0,0.039,0.039,0,0,0,0,0,0,0,0,0,0,0,"C"
"724","D",0.039,0.078,0.078,0,0,0.078,0.117,0,0,0.039,0.273,0,0,0.078,0.039,0,0,0,0,"C"
"725","D",0,0,0,0,0,0,0.078,0.078,0.117,0.117,0.039,0,0,0.156,0.156,0.117,0,0.039,0.039,"C"
"726","D",0,0,0,0.156,0.156,0.117,0.156,0.078,0,0,0.156,0.078,0.117,0.078,0.117,0.117,0.117,0.078,0.078,"C"
"727","D",0,0,0.039,0.078,0,0,0,0,0.039,0.039,0.039,0,0.039,0,0,0.039,0,0,0.039,"C"
"728","D",0.078,0,0,0,0.039,0.078,0.117,0.078,0,0.039,0.117,0.039,0,0.195,0.039,0,0.195,0.039,0,"C"
"729","D",0.078,0,0,0,0,0,0,0,0.156,0,0,0,0,0,0,0.117,0,0,0,"C"
"730","D",0,0,0,0,0,0,0,0,0.039,0.039,0.039,0.039,0.039,0.039,0.039,0.117,0,0.039,0.078,"C"
"731","D",0.039,0.117,0.117,0,0,0,0,0.039,0.078,0,0.039,0.039,0.078,0,0,0,0.039,0,0,"C"
"732","D",0,0,0,0,0,0,0,0,0,0,0,0,0,0,0,0,0,0,0,"C"
"733","D",0,0,0,0.078,0.039,0,0,0,0.039,0,0,0.078,0.078,0,0,0,0,0,0.039,"C"
"734","D",0,0,0,0,0,0.078,0,0.039,0.117,0.078,0,0,0,0,0,0,0,0,0,"C"
"735","D",0.039,0.078,0.078,0,0,0,0,0,0,0,0.039,0,0,0,0.117,0,0.078,0,0,"C"
"736","D",0,0,0,0,0.078,0.039,0,0,0,0.039,0,0.078,0.039,0,0,0,0,0,0.039,"C"
"737","D",0.078,0,0,0,0,0,0,0,0.039,0.039,0,0,0,0,0,0,0,0,0,"C"
"738","D",0,0.117,0.039,0.078,0.078,0.039,0.078,0,0,0.078,0.117,0.078,0.039,0.078,0.039,0,0.078,0.039,0.039,"C"
"739","D",0.508,0.039,0.078,0,0.195,0.039,0.039,0.078,0,0.039,0,0,0.039,0,0,0.078,0,0,0,"C"
"740","D",0.234,0,0,0,0,0,0,0.078,0.078,0,0.039,0.156,0.039,0.156,0.117,0.078,0.117,0.195,0.156,"C"
"741","D",0.508,0.039,0,0,0.078,0.117,0.117,0.039,0.117,0,0,0,0,0,0,0,0,0,0,"C"
"742","D",0.469,0.039,0,0,0,0,0.078,0.039,0,0,0,0,0,0.117,0,0,0.039,0,0,"C"
"743","D",0.234,0,0,0,0,0,0.039,0,0.039,0,0,0,0,0,0,0,0,0,0,"C"
"744","D",0.625,0,0,0,0,0,0.078,0,0,0,0,0,0,0.039,0,0.078,0,0.195,0.039,"C"
"745","D",0.234,0.039,0.117,0.078,0.039,0,0,0,0,0,0.039,0.078,0.117,0,0.039,0,0,0,0,"C"
"746","D",0.391,0,0.039,0,0.078,0,0,0.039,0.078,0.117,0,0,0.039,0.039,0.039,0.195,0.117,0,0.039,"C"
"747","D",0.273,0.078,0,0.078,0.078,0.195,0.039,0.039,0,0.234,0.117,0.156,0.078,0.078,0.039,0,0.156,0.039,0.156,"C"
"748","D",0.391,0,0,0,0.078,0.039,0,0,0,0.039,0,0,0,0.039,0,0,0,0,0,"C"
"749","D",0.547,0,0,0,0,0,0,0,0,0,0.078,0,0,0.078,0.039,0,0.039,0,0,"C"
"750","D",0.391,0.039,0,0,0,0,0,0,0,0,0,0,0,0,0,0,0,0,0,"C"
"751","D",0.391,0,0,0,0.039,0,0.117,0.039,0.117,0,0.039,0.039,0.078,0.078,0.195,0.156,0.117,0.039,0.039,"C"
"752","D",0.508,0.039,0.039,0,0,0,0,0,0,0,0,0.078,0,0,0.039,0,0.078,0.078,0.039,"C"
"753","D",0.547,0,0.078,0.078,0.117,0,0,0.078,0.078,0.078,0.117,0.156,0.117,0.039,0.117,0.078,0.078,0.078,0.117,"C"
"754","D",0.508,0.078,0.039,0,0,0,0.078,0.039,0.078,0.078,0.117,0.117,0.078,0.117,0.039,0,0.078,0.078,0,"C"
"755","D",0.469,0,0,0.039,0,0,0,0,0,0,0.039,0.039,0.078,0,0,0,0,0,0.039,"C"
"756","D",0.625,0,0,0,0,0,0,0.039,0,0,0,0,0,0,0.078,0,0,0,0,"C"
"757","H",0,0,0.078,0,0.039,0.039,0,0,0.039,0.156,0.039,0.039,0.078,0.039,0.117,0.039,0.078,0.156,0.039,"C"
"758","H",0.078,0,0,0,0.039,0.039,0.039,0,0.039,0.039,0,0.078,0.078,0.039,0.039,0.039,0.078,0.039,0,"C"
"759","H",0.078,0,0.156,0.117,0.078,0.039,0,0.117,0.039,0.039,0.039,0.039,0.156,0.039,0.078,0.078,0.078,0.078,0.078,"C"
"760","H",0,0,0,0.078,0.078,0,0,0.156,0.117,0.117,0,0,0.039,0,0.078,0.078,0,0,0,"C"
"761","H",0,0,0.039,0.117,0.195,0.078,0.039,0.039,0.039,0.078,0.078,0,0.039,0,0,0.039,0.039,0,0,"C"
"762","H",0,0,0.039,0.078,0,0.156,0.039,0,0.117,0,0.039,0.117,0.039,0.078,0,0.078,0.039,0,0.039,"C"
"763","H",0.039,0,0,0.078,0,0.078,0.078,0.078,0,0.039,0,0,0,0,0,0,0,0.039,0,"C"
"764","H",0.078,0.078,0.117,0.078,0.039,0.117,0,0.039,0.039,0,0.078,0.156,0.039,0.039,0.078,0.039,0,0.156,0.117,"C"
"765","H",0.078,0.078,0.156,0.039,0.195,0.039,0,0.078,0.039,0.078,0.078,0.039,0.234,0,0,0,0.039,0.156,0,"C"
"766","H",0.117,0.078,0.078,0.039,0.078,0.039,0.078,0.078,0.117,0,0.156,0,0.078,0.039,0.039,0,0.078,0.078,0,"C"
"767","H",0.039,0.117,0.078,0.117,0.352,0.039,0.195,0.156,0,0,0,0.195,0.234,0.039,0.078,0,0.117,0,0.117,"C"
"768","H",0.039,0.039,0.078,0,0.117,0.039,0.039,0.078,0.156,0,0,0.039,0.078,0.039,0.039,0,0,0,0.039,"C"
"769","H",0.039,0.078,0.078,0,0,0,0.039,0.039,0,0,0.039,0.039,0,0,0,0,0,0,0,"C"
"770","H",0.039,0,0.078,0.195,0.156,0,0.039,0.039,0,0.117,0.039,0.039,0.117,0,0.039,0.039,0,0,0.078,"C"
"771","H",0.117,0.039,0.039,0,0.039,0.078,0.039,0,0,0,0.117,0.039,0,0.078,0.078,0.039,0.078,0.078,0,"C"
"772","H",0.078,0.117,0.078,0.078,0.078,0.078,0.078,0,0.078,0.078,0.078,0.078,0.078,0.039,0.117,0.078,0.078,0.078,0.078,"C"
"773","H",0,0.039,0,0.039,0,0,0,0.039,0,0,0.039,0,0,0.039,0,0,0,0.039,0,"C"
"774","H",0,0,0.039,0,0.039,0,0,0,0.195,0.039,0.078,0,0.078,0,0,0.039,0,0.039,0.078,"C"
"775","D",0.156,0,0,0,0.039,0.078,0.117,0.039,0.039,0,0,0.039,0,0.039,0.039,0.039,0.078,0.039,0,"C"
"776","D",0,0,0,0,0,0,0,0,0,0,0,0,0.078,0,0,0.039,0,0.039,0,"C"
"777","D",0,0.039,0.078,0.039,0.078,0,0.039,0.039,0.117,0.078,0.078,0.078,0.039,0,0.078,0.078,0.039,0.156,0.078,"C"
"778","D",0,0,0,0,0,0,0.039,0,0,0,0,0,0,0.039,0,0,0,0,0,"C"
"779","D",0.078,0.039,0.078,0.039,0,0.156,0.078,0.117,0,0,0.117,0.078,0,0.195,0,0,0.117,0,0,"C"
"780","D",0,0,0.078,0.117,0.117,0,0.117,0.078,0.156,0.117,0.039,0.078,0.156,0.078,0.078,0.156,0.039,0.078,0.156,"C"
"781","D",0,0,0,0,0,0,0,0.039,0,0,0,0,0,0,0,0,0,0,0,"C"
"782","D",0.039,0.078,0.117,0.117,0,0.039,0,0.156,0,0,0.078,0,0,0.156,0,0,0.078,0,0,"C"
"783","D",0.039,0,0,0,0,0.039,0.039,0,0,0,0,0,0,0,0,0,0,0,0,"C"
"784","D",0,0,0.039,0,0,0,0.078,0.039,0.039,0.039,0,0,0,0,0,0.039,0,0,0.039,"C"
"785","D",0.078,0.156,0.117,0.078,0.039,0.078,0,0.078,0.078,0.078,0.117,0.117,0.078,0.117,0.117,0.078,0.117,0.078,0.078,"C"
"786","D",0,0,0,0.078,0.039,0,0,0.039,0.039,0,0,0,0.039,0,0,0,0,0,0.039,"C"
"787","D",0.117,0,0.117,0,0,0,0,0,0,0,0.117,0,0,0,0,0,0.078,0,0,"C"
"788","D",0,0,0,0,0,0,0,0.078,0,0,0,0,0,0.039,0,0,0,0,0,"C"
"789","D",0.195,0.117,0.273,0.078,0,0.078,0.078,0,0,0,0.078,0.078,0,0,0.039,0.078,0.195,0.039,0.039,"C"
"790","D",0.039,0.039,0,0,0,0,0,0,0.078,0,0,0,0,0.117,0.117,0,0.039,0,0,"C"
"791","D",0,0,0.117,0.078,0,0,0,0.039,0,0,0,0,0.039,0.039,0.078,0.039,0,0.039,0.039,"C"
"792","D",0.117,0,0,0.078,0.156,0.039,0.078,0,0.078,0.117,0,0.078,0.156,0,0,0,0.039,0,0,"C"
"793","D",0.078,0.039,0.039,0.039,0,0.078,0.039,0,0,0,0.078,0,0.039,0.078,0.039,0,0.078,0.078,0,"C"
"794","D",0.078,0,0,0,0.078,0.078,0.156,0.078,0.117,0.078,0,0.156,0,0.078,0.078,0.156,0,0.078,0.039,"C"
"795","D",0,0,0.078,0.039,0,0,0,0,0,0,0.078,0.078,0,0,0,0,0,0.039,0,"C"
"796","D",0.039,0.039,0.078,0.078,0.078,0.078,0.078,0.273,0.078,0.039,0.039,0.078,0.078,0.039,0.117,0.117,0.039,0.039,0.039,"C"
"797","D",0.039,0,0,0.039,0.039,0,0.039,0.078,0.156,0.117,0,0.039,0.117,0.039,0.117,0.156,0.039,0.156,0.117,"C"
"798","D",0.156,0.078,0,0,0,0.078,0.039,0,0,0,0,0,0,0.078,0,0,0.039,0.078,0,"C"
"799","D",0,0,0.078,0.195,0.078,0.039,0,0.039,0.117,0.156,0,0.039,0.039,0,0,0,0,0,0.156,"C"
"800","D",0,0,0.039,0,0.078,0.039,0,0.078,0.078,0.039,0.039,0,0,0,0,0,0,0,0,"C"
"801","D",0.078,0.078,0,0.156,0.117,0.078,0.039,0,0.078,0.117,0.078,0.195,0.195,0.039,0.078,0.156,0.078,0.117,0.156,"C"
"802","D",0,0,0.117,0,0,0,0,0,0.039,0,0,0,0,0,0,0,0,0,0,"C"
"803","D",0.117,0,0.195,0,0,0.156,0.078,0,0.039,0.039,0.156,0.039,0,0.039,0.156,0.156,0.156,0.156,0.156,"C"
"804","D",0.117,0,0,0.039,0.039,0.078,0.156,0.195,0.078,0.078,0.117,0.117,0.078,0.156,0.117,0.117,0.117,0.117,0.078,"C"
"805","D",0,0,0.039,0.039,0,0,0.039,0,0,0,0,0,0,0,0,0,0,0,0,"C"
"806","D",0,0,0,0,0,0,0.039,0.078,0,0,0,0,0,0,0,0.156,0,0,0,"C"
"807","D",0,0,0.078,0.078,0.039,0,0,0,0.078,0.117,0,0.039,0.039,0,0,0.039,0,0,0,"C"
"808","D",0.078,0.078,0.078,0.039,0,0.078,0.117,0.195,0,0,0.078,0,0.039,0.078,0,0,0.078,0,0,"C"
"809","D",0,0,0,0,0,0,0.078,0,0.039,0,0,0,0,0,0,0,0,0,0,"C"
"810","D",0,0,0,0.039,0,0,0.078,0,0,0,0.039,0,0,0,0,0,0,0,0.039,"C"
"811","D",0.078,0.078,0.039,0.078,0.078,0.039,0.078,0,0.078,0.039,0.156,0.156,0.195,0.117,0.195,0.273,0.273,0.313,0.313,"C"
"812","D",0,0,0,0,0,0,0,0,0,0.039,0,0,0,0,0,0,0,0,0,"C"
"813","D",0,0,0,0.039,0.078,0,0.039,0.078,0.156,0.117,0,0,0.078,0.039,0,0.313,0,0.078,0.117,"C"
"814","D",0,0.039,0.078,0.117,0.039,0.039,0.078,0.039,0,0,0.039,0.078,0.039,0.039,0,0,0.039,0.039,0,"C"
"815","D",0,0.078,0.039,0.078,0,0,0,0,0,0,0.078,0.039,0.039,0,0,0,0,0,0,"C"
"816","D",0.039,0.078,0.078,0.078,0.117,0.039,0.039,0.117,0,0.078,0.078,0,0.117,0.117,0.078,0.117,0.117,0.078,0.117,"C"
"817","D",0,0,0,0,0,0.039,0,0,0,0.039,0,0,0,0,0,0,0,0.039,0,"C"
"818","D",0.078,0,0,0.039,0.039,0.117,0.078,0,0.039,0.039,0,0,0.039,0,0.039,0.039,0,0,0,"C"
"819","D",0,0.039,0.039,0.117,0.156,0.039,0,0,0.117,0.117,0,0.078,0.078,0.039,0.039,0.078,0.039,0.273,0.078,"C"
"820","D",0,0,0.078,0,0.039,0,0,0.039,0.039,0.078,0.039,0.039,0.039,0.039,0,0,0.078,0.078,0.039,"C"
"821","D",0.039,0,0.039,0,0,0.039,0,0.117,0,0,0,0,0,0,0.039,0,0.078,0,0,"C"
"822","D",0.117,0.039,0,0,0,0,0,0.117,0.039,0.039,0,0.039,0.039,0.039,0.039,0.078,0.078,0.039,0.078,"C"
"823","D",0,0,0,0,0,0,0,0,0.039,0,0,0,0,0.039,0,0,0,0.078,0.039,"C"
"824","D",0,0,0.039,0,0.195,0,0.039,0,0,0.078,0,0,0.078,0,0,0,0,0,0.039,"C"
"825","D",0.078,0.078,0,0.117,0.039,0.039,0.039,0,0,0.039,0,0,0.039,0,0.078,0,0,0,0,"C"
"826","D",0.156,0.078,0.156,0.078,0.039,0.156,0.117,0.234,0.039,0,0.039,0.039,0.039,0,0,0.078,0,0,0,"C"
"827","D",0,0.039,0,0.039,0.039,0,0,0.039,0,0.039,0,0,0.078,0.039,0,0.039,0.039,0.078,0.078,"C"
"828","D",0,0,0,0.195,0,0.039,0,0.078,0,0,0,0,0,0,0,0,0,0,0,"C"
"829","D",0.039,0.156,0.273,0.273,0.234,0.156,0.156,0.078,0.117,0.313,0.195,0.156,0.352,0.234,0.195,0.547,0.195,0.352,0.117,"C"
"830","D",0.039,0.195,0.273,0.313,0.391,0.469,0.352,0.078,0.117,0.313,0.117,0.391,0.234,0.234,0.313,0.352,0.078,0.586,0.313,"C"
"831","D",0,0.195,0.078,0.156,0.234,0.391,0.195,0.273,0.117,0.273,0.352,0.078,0.508,0.156,0.508,0.195,0.313,0.117,0.391,"C"
"832","D",0,0.391,0.352,0.117,0.078,0.586,0.234,0.156,0.078,0.547,0.508,0.352,0.43,0.195,0.469,0.117,0.117,0,0.43,"C"
"833","D",0,0.234,0.313,0.156,0.117,0.625,0.195,0.508,0.039,0.352,0.43,0.234,0.547,0.156,0.508,0.117,0.039,0.195,0.625,"C"
"834","D",0.078,0.234,0.195,0,0.156,0.469,0.156,0.391,0.039,0.391,0.43,0.234,0.586,0.234,0.391,0.039,0.234,0.078,0.195,"C"
"835","D",0,0.391,0.156,0.039,0.313,0.547,0.273,0.43,0.078,0.625,0.547,0.195,0.625,0.273,0.391,0.156,0.195,0,0.352,"C"
"836","D",0.078,0.391,0.195,0.117,0.273,0.352,0.313,0.273,0.195,0.313,0.391,0.156,0.313,0.195,0.352,0.234,0.234,0.039,0.313,"C"
"837","D",0,0.313,0.43,0.078,0.195,0.352,0.234,0.313,0.117,0.469,0.273,0.391,0.391,0.039,0.391,0.078,0.195,0.039,0.43,"C"
"838","D",0.078,0.313,0.273,0.078,0.273,0.547,0.117,0.234,0.039,0.625,0.156,0.273,0.469,0.117,0.195,0.43,0.117,0.117,0.273,"C"
"839","D",0.039,0.117,0.195,0,0.156,0.547,0.117,0.195,0.156,0.469,0.273,0.117,0.586,0.156,0.469,0.195,0.117,0.234,0.195,"C"
"840","D",0.039,0.195,0.273,0,0.078,0.43,0.117,0.273,0.117,0.313,0.078,0.273,0.195,0.078,0.313,0.234,0.078,0.078,0.273,"C"
"841","D",0.039,0.391,0.273,0.039,0.352,0.547,0.273,0.43,0.039,0.547,0.273,0.273,0.586,0.195,0.586,0.195,0.391,0.117,0.234,"C"
"842","D",0.117,0.313,0.352,0.078,0.156,0.352,0.313,0.469,0.156,0.273,0.156,0.273,0.156,0.117,0.234,0.117,0.195,0,0.234,"C"
"843","D",0,0.156,0.195,0.117,0.117,0.43,0.039,0.391,0.078,0.391,0.234,0.039,0.43,0.195,0.43,0.156,0.313,0.313,0.313,"C"
"844","D",0.195,0.313,0.273,0.078,0.117,0.547,0.352,0.313,0.156,0.547,0.273,0.234,0.469,0.195,0.273,0.156,0.078,0.234,0.508,"C"
"845","D",0,0.313,0.391,0.117,0.117,0.781,0.352,0.391,0.117,0.352,0.391,0.234,0.469,0.156,0.313,0.195,0.078,0,0.352,"C"
"846","D",0.039,0.313,0.313,0.078,0.156,0.547,0.391,0.313,0.078,0.391,0.273,0.313,0.625,0.313,0.43,0.039,0.039,0.195,0.703,"C"
"847","H",0.039,0.078,0.117,0.039,0,0.039,0.117,0.039,0,0.039,0,0,0,0,0.039,0,0,0,0,"C"
"848","H",0.039,0.039,0,0,0.156,0.117,0.039,0.039,0.078,0.117,0,0,0,0.078,0,0.078,0.078,0,0,"C"
"849","H",0,0.078,0.039,0,0.039,0.039,0.039,0.156,0.039,0.078,0.039,0,0,0.039,0.039,0.039,0,0,0,"C"
"850","H",0,0.039,0.117,0.117,0.078,0.039,0.039,0,0,0,0.039,0.078,0.078,0,0.039,0,0.039,0.039,0.039,"C"
"851","H",0.078,0.039,0.039,0,0,0,0,0,0,0,0,0,0,0,0,0,0.039,0.078,0,"C"
"852","H",0,0.039,0.156,0.078,0.117,0.156,0,0.039,0,0.117,0,0,0.117,0,0,0.039,0,0,0.078,"C"
"853","H",0,0.039,0.039,0,0,0.039,0,0.078,0.078,0.156,0,0.156,0,0.156,0.039,0.156,0,0.039,0.195,"C"
"854","H",0,0,0.039,0.156,0,0.039,0.117,0.039,0.234,0.039,0.039,0,0.156,0.039,0.039,0.039,0.039,0,0.117,"C"
"855","H",0.039,0.117,0.039,0.039,0.039,0.039,0.039,0.039,0,0,0.117,0.117,0.078,0.039,0.078,0.039,0.078,0.078,0.039,"C"
"856","H",0.039,0,0.156,0.039,0.078,0.039,0,0.039,0.039,0.156,0,0,0,0,0,0.039,0,0,0,"C"
"857","H",0.117,0.039,0.156,0,0,0.117,0.078,0.078,0.078,0.078,0.156,0.078,0.039,0.078,0.078,0.078,0.117,0.078,0.078,"C"
"858","H",0,0.039,0,0,0,0,0,0.078,0,0,0.039,0.078,0.078,0.039,0.039,0,0,0.078,0.039,"C"
"859","H",0.117,0,0.039,0,0,0.039,0,0.039,0,0,0,0,0,0.039,0.078,0.039,0.039,0,0,"C"
"860","H",0.039,0.117,0,0.078,0.273,0.039,0.039,0.039,0.234,0.195,0,0.039,0.039,0.039,0,0.156,0,0,0.117,"C"
"861","H",0,0,0.039,0.039,0.078,0,0,0,0,0.078,0.039,0,0,0.039,0,0,0,0,0.039,"C"
"862","H",0,0.156,0.039,0.078,0.039,0.039,0,0,0.039,0,0.039,0,0,0.039,0.078,0.039,0,0,0,"C"
"863","H",0.039,0.078,0.078,0,0,0.039,0,0,0,0,0.039,0,0,0,0,0,0.039,0,0,"C"
"864","H",0.078,0.039,0.039,0.313,0.078,0.078,0.039,0.039,0.156,0.195,0.039,0,0.039,0.117,0,0,0.039,0.078,0.078,"C"
"865","D",0.039,0.039,0.078,0.078,0,0.078,0.117,0.039,0,0,0,0,0,0.078,0,0,0.039,0,0.039,"C"
"866","D",0,0.117,0.117,0.039,0.156,0.039,0,0.078,0,0.156,0.078,0.078,0.078,0.039,0.039,0.039,0.078,0,0,"C"
"867","D",0.195,0.156,0.039,0.039,0.078,0.117,0.039,0.039,0,0.117,0.117,0.078,0.195,0,0.195,0.039,0.078,0.039,0.234,"C"
"868","D",0.156,0.039,0.039,0.078,0.039,0.039,0.078,0,0.234,0.195,0,0.078,0,0.039,0.078,0,0.039,0.078,0.078,"C"
"869","D",0.117,0.078,0.117,0.039,0.039,0.078,0.117,0.039,0.078,0,0.039,0.078,0.117,0.078,0.039,0.078,0.039,0.117,0.195,"C"
"870","D",0.078,0.117,0.078,0.117,0.117,0.078,0.039,0.078,0.117,0.078,0.039,0,0.117,0.117,0.039,0.117,0.273,0.117,0.039,"C"
"871","D",0,0.078,0,0.156,0,0,0.078,0.039,0,0.078,0.039,0.039,0,0.078,0,0.078,0.039,0.039,0.039,"C"
"872","D",0.078,0.117,0.039,0,0,0.078,0.117,0.078,0.078,0.039,0.078,0.156,0.078,0.039,0,0.039,0,0.078,0,"C"
"873","D",0.039,0.117,0,0.078,0.039,0.039,0,0.117,0.117,0.039,0.039,0,0,0.117,0.039,0.039,0,0.039,0.039,"C"
"874","D",0.039,0.156,0.078,0,0,0.039,0.156,0.039,0.039,0,0.039,0.039,0,0.117,0.078,0,0.117,0,0.039,"C"
"875","D",0.039,0.039,0,0.039,0.039,0.039,0.273,0.234,0.039,0.039,0.195,0,0.078,0.039,0.156,0.039,0.117,0.039,0.078,"C"
"876","D",0.117,0.078,0,0.117,0.156,0,0,0.156,0.234,0.117,0.039,0,0.195,0.039,0.078,0.156,0.078,0.039,0.195,"C"
"877","D",0.039,0.078,0,0.078,0.039,0,0.156,0.039,0.078,0,0.117,0.039,0,0,0.039,0.039,0.078,0,0.039,"C"
"878","D",0.039,0.156,0.078,0.078,0,0.195,0.039,0,0.195,0.039,0.117,0.117,0.078,0.117,0.039,0,0.078,0.039,0,"C"
"879","D",0,0.078,0.078,0,0.039,0.039,0.117,0.039,0.117,0,0.078,0.039,0,0.078,0,0.078,0,0.039,0.078,"C"
"880","D",0.078,0.039,0.039,0.117,0.039,0.039,0.039,0,0,0.039,0.039,0.078,0.078,0,0.078,0.117,0.039,0.039,0.195,"C"
"881","D",0,0.039,0,0.039,0,0.039,0.039,0.117,0.039,0.039,0.156,0,0,0.078,0.078,0.078,0.039,0.039,0,"C"
"882","D",0.039,0,0.039,0,0.078,0,0,0.117,0.156,0,0,0,0,0,0,0,0,0,0,"C"
"883","D",0,0,0.039,0.039,0,0.039,0,0,0.039,0,0.078,0.078,0.039,0,0,0,0.039,0.039,0,"C"
"884","D",0.117,0,0.039,0,0,0,0,0.078,0.078,0.039,0.039,0.078,0.117,0,0.039,0.078,0.039,0.039,0.078,"C"
"885","D",0,0.039,0,0,0.117,0,0,0.039,0,0,0.039,0.117,0,0.039,0,0,0,0,0,"C"
"886","D",0.039,0,0.039,0,0,0,0,0,0.039,0,0,0,0,0,0,0.039,0,0,0,"C"
"887","D",0,0.039,0.195,0.039,0.039,0,0,0.039,0,0.078,0,0.039,0.039,0,0,0,0,0.039,0.039,"C"
"888","D",0.078,0.078,0.039,0.156,0.156,0.039,0,0.078,0.117,0.117,0.078,0,0.078,0,0,0.039,0,0,0.039,"C"
"889","D",0,0,0,0,0,0,0,0,0,0,0,0,0,0,0,0.039,0,0,0,"C"
"890","D",0,0,0,0,0,0,0,0.117,0,0,0,0.117,0.117,0,0.078,0.078,0,0.039,0.039,"C"
"891","D",0,0,0,0.195,0.039,0.039,0,0.078,0.078,0.078,0,0.039,0.039,0.078,0.078,0.039,0,0.039,0.078,"C"
"892","D",0.195,0.039,0,0,0.117,0.117,0.039,0,0,0.078,0,0,0,0.078,0,0,0,0,0,"C"
"893","D",0,0.078,0.078,0,0,0.039,0.039,0.039,0,0,0.039,0.195,0.078,0,0,0.117,0.039,0,0.117,"C"
"894","D",0.039,0.078,0.039,0.078,0.156,0.039,0,0.039,0.039,0.039,0.078,0,0,0,0,0.234,0,0,0.117,"C"
"895","D",0,0,0,0,0,0,0.156,0.117,0.078,0,0,0,0,0.039,0.039,0.078,0,0,0,"C"
"896","D",0.117,0.039,0,0,0.156,0.078,0.078,0.078,0.078,0,0.039,0.039,0,0.117,0,0,0.039,0,0,"C"
"897","D",0,0,0,0,0,0,0.039,0,0.039,0,0,0,0,0,0,0,0,0,0,"C"
"898","D",0,0,0,0.039,0,0,0,0.039,0.039,0,0,0,0,0.039,0.039,0,0,0,0,"C"
"899","D",0.039,0.039,0,0,0,0,0.039,0,0.078,0,0,0,0,0.039,0,0.039,0.039,0,0.039,"C"
"900","D",0.039,0.078,0.039,0.039,0,0.039,0.078,0.078,0,0.078,0.078,0,0,0.117,0.195,0,0.117,0.117,0.039,"C"
"901","D",0.039,0.078,0,0.078,0,0.195,0.039,0,0,0.078,0,0,0.117,0,0,0,0,0,0,"C"
"902","D",0.039,0.039,0.117,0.156,0.078,0.039,0.039,0.039,0,0.039,0.039,0.039,0,0.117,0.039,0,0.078,0.039,0,"C"
"903","D",0,0.078,0.039,0.156,0.117,0.039,0.078,0,0,0.156,0,0,0.195,0,0,0,0,0,0.039,"C"
"904","D",0.039,0,0,0,0,0,0,0,0,0,0,0,0,0,0,0,0.039,0,0,"C"
"905","D",0.039,0.039,0.078,0.078,0,0.039,0,0,0,0,0,0.078,0.039,0,0,0,0,0,0,"C"
"906","D",0.117,0,0.078,0.156,0,0,0,0.039,0.156,0,0,0,0,0.039,0.078,0,0,0.039,0,"C"
"907","D",0,0.078,0.039,0,0.078,0.156,0.156,0,0,0,0,0,0,0.156,0,0,0,0,0.039,"C"
"908","D",0,0,0.078,0.039,0.039,0,0,0.039,0.039,0.039,0,0,0.039,0,0.039,0.039,0,0,0.039,"C"
"909","D",0.117,0.078,0,0,0,0.078,0.039,0.117,0.117,0.039,0.117,0,0,0.078,0,0.078,0.117,0.039,0.039,"C"
"910","D",0,0.078,0.078,0.039,0.039,0,0,0.039,0,0,0.078,0.039,0.039,0,0.039,0,0.078,0.039,0.039,"C"
"911","D",0.039,0,0,0,0,0.039,0.039,0,0,0.039,0,0,0,0,0,0.039,0,0.078,0,"C"
"912","D",0.234,0.156,0.078,0,0.039,0.234,0.234,0.039,0.117,0.078,0.078,0.156,0.078,0.195,0.039,0.078,0.039,0,0.117,"C"
"913","D",0,0,0.078,0,0,0,0.078,0,0,0,0,0.039,0,0,0,0,0,0.078,0,"C"
"914","D",0.078,0,0,0,0.039,0.039,0,0,0.078,0.078,0,0,0.078,0.078,0.078,0.078,0.078,0.078,0.078,"C"
"915","D",0.078,0.117,0.078,0.039,0,0.078,0.117,0.234,0,0,0.117,0.039,0,0.078,0,0,0.117,0,0.039,"C"
"916","D",0.039,0,0.117,0.039,0,0.117,0.039,0.078,0.156,0.078,0.039,0.117,0.156,0,0.039,0.117,0,0.078,0.039,"C"
"917","D",0.039,0,0,0,0,0.039,0.078,0.039,0,0,0,0,0,0.078,0,0,0.039,0,0,"C"
"918","D",0,0,0.039,0,0.039,0.117,0.078,0,0.117,0,0,0,0,0.039,0,0.078,0.078,0.039,0.039,"C"
"919","D",0.156,0.117,0.117,0.039,0.117,0.156,0.195,0.156,0.039,0.156,0.156,0.195,0.195,0.078,0.117,0.273,0.195,0.234,0.234,"C"
"920","D",0.039,0.039,0.039,0,0,0.078,0.039,0.078,0.078,0.039,0.039,0.078,0.039,0.078,0.117,0.078,0.039,0.078,0.078,"C"
"921","D",0.156,0.156,0.117,0.078,0,0.078,0.117,0.039,0,0,0.156,0.117,0.078,0.117,0.078,0,0.117,0.117,0.078,"C"
"922","D",0.117,0,0,0,0.117,0.078,0.078,0,0.039,0,0,0,0,0,0,0,0,0,0,"C"
"923","D",0,0.078,0.078,0,0,0,0.039,0,0.039,0.117,0.039,0,0.078,0.039,0.039,0.078,0.039,0,0.078,"C"
"924","D",0,0.039,0,0,0,0,0,0,0,0,0,0,0,0,0,0,0,0,0,"C"
"925","D",0,0.039,0.078,0.078,0,0,0,0.039,0,0,0.078,0.039,0.039,0.117,0.039,0,0.117,0.078,0.039,"C"
"926","D",0,0,0.117,0,0,0,0,0,0,0.039,0,0,0.039,0,0,0,0.039,0.039,0.039,"C"
"927","D",0,0,0,0,0,0,0,0.039,0,0,0.117,0,0,0.039,0.039,0.078,0,0,0.117,"C"
"928","D",0,0,0,0,0,0.039,0,0,0,0,0,0,0,0,0,0,0,0,0,"C"
"929","D",0,0.039,0,0.078,0,0,0.195,0.078,0,0.352,0,0.078,0.117,0,0,0.078,0,0.039,0.078,"C"
"930","D",0.039,0.039,0.039,0.039,0,0.039,0,0.039,0.234,0.117,0.039,0.039,0,0.117,0.039,0.078,0.039,0.039,0.078,"C"
"931","D",0,0,0.039,0,0,0,0.039,0.039,0.234,0.078,0,0,0,0,0,0,0,0.039,0.039,"C"
"932","D",0.078,0.117,0.039,0.078,0,0.039,0,0,0,0,0.117,0.195,0.156,0,0,0,0.078,0.117,0.039,"C"
"933","D",0.156,0.078,0,0.078,0.039,0.117,0.117,0.156,0.117,0.117,0.117,0.078,0.117,0.039,0.078,0.039,0.078,0.078,0.117,"C"
"934","D",3.633,0,0.039,0.156,0.156,0,0.039,0,0.039,0.156,0,0,0.234,0,0,0,0,0,0.039,"C"
"935","D",0.898,0,0.039,0,0.117,0.039,0.039,0.156,0.078,0,0.039,0.039,0,0,0,0.039,0.039,0,0.039,"C"
"936","D",0.117,0,0.039,0,0,0.039,0,0.156,0.039,0,0.039,0.078,0,0.039,0.313,0,0.117,0.117,0,"C"
"937","D",0,0,0,0.039,0,0.078,0,0,0,0,0,0.039,0,0,0,0,0,0,0,"C"
"938","D",0,0,0.039,0,0.039,0,0,0,0.039,0,0.039,0,0,0,0,0,0.039,0,0.078,"C"
"939","D",0,0.039,0.078,0.039,0,0,0.078,0,0,0,0,0.078,0.078,0.078,0,0,0,0.078,0.039,"C"
"940","D",0,0.078,0,0.117,0.156,0.039,0,0.117,0.039,0.156,0,0,0.039,0,0,0.039,0,0,0.078,"C"
"941","D",0.078,0,0,0,0.078,0.039,0.039,0,0.039,0.039,0.039,0.078,0.078,0.078,0,0,0.039,0,0.039,"C"
"942","D",0.039,0.156,0,0.039,0.039,0.117,0.078,0,0,0,0.078,0,0,0,0,0,0.039,0,0.039,"C"
"943","D",0,0,0,0.117,0.078,0.078,0.078,0.117,0,0.039,0.039,0.156,0.156,0.156,0.078,0.078,0.078,0.078,0.078,"C"
"944","D",0,0,0,0,0.117,0,0.078,0.117,0,0.117,0,0,0.078,0,0.117,0.078,0,0,0.117,"C"
"945","D",0,0,0,0.078,0.039,0.156,0,0.078,0,0,0,0,0,0,0,0,0,0,0,"C"
"946","D",0,0.039,0,0,0,0,0,0.039,0,0,0.039,0,0,0.039,0,0,0,0,0,"C"
"947","D",0.039,0.039,0.156,0,0,0,0,0.078,0.156,0.078,0,0,0.039,0,0.039,0,0,0,0,"C"
"948","D",0,0,0,0.039,0.039,0,0,0,0,0,0,0,0.039,0,0,0,0,0,0,"C"
"949","D",0,0,0,0,0,0,0.039,0,0,0,0.117,0.078,0,0,0,0,0.039,0.039,0.078,"C"
"950","D",0.117,0,0.117,0.039,0.039,0.039,0.078,0,0.078,0.078,0,0,0.039,0,0,0.039,0.039,0,0,"C"
"951","D",0,0.078,0.117,0.117,0.078,0.078,0.078,0,0,0.117,0.039,0.039,0.117,0.039,0.078,0,0.039,0,0.117,"C"
"952","D",0,0.039,0.039,0,0,0.039,0,0,0,0,0,0,0,0,0,0,0,0,0,"C"
"953","D",0.078,0,0.117,0.117,0.117,0.078,0.078,0,0.039,0.039,0.078,0.039,0.078,0,0,0,0,0,0,"C"
"954","D",0,0,0,0,0,0,0,0.039,0.039,0,0,0,0,0,0,0,0,0,0,"C"
"955","D",0.273,0.039,0,0.039,0.156,0.664,0,0.078,0.078,0.195,0,0.039,0.039,0,0.039,0.078,0,0,0.234,"C"
"956","D",0.234,0,0.039,0,0.078,0.391,0,0,0,0,0.039,0.039,0,0.039,0.039,0.039,0.117,0,0,"C"
"957","D",0.039,0,0,0,0,0.391,0,0,0,0,0,0.039,0,0.039,0,0,0,0,0,"C"
"958","D",0.078,0,0,0,0,0.586,0,0,0,0.039,0,0,0,0,0,0,0,0,0,"C"
"959","D",0,0,0.039,0.117,0.078,0.352,0.234,0.078,0.156,0.078,0,0.039,0.039,0,0.156,0.039,0.039,0.039,0,"C"
"960","D",0.039,0,0.039,0.039,0,0.43,0,0,0,0,0.078,0.039,0,0.039,0.117,0,0.078,0.039,0.078,"C"
"961","D",0.078,0,0.039,0.117,0.039,0.234,0,0.078,0.078,0.039,0,0.078,0.039,0,0.039,0.039,0,0.039,0,"C"
"962","D",0.078,0,0,0,0,0.313,0,0,0,0,0.039,0,0,0,0,0,0,0.039,0,"C"
"963","D",0.234,0.078,0.039,0.078,0.039,0.313,0.117,0,0,0,0.195,0.195,0.078,0.117,0.078,0.039,0.117,0.117,0.039,"C"
"964","D",0.195,0.078,0,0.039,0,0.625,0,0,0,0.039,0,0,0,0,0,0,0,0,0,"C"
"965","D",0.117,0,0,0,0,0.469,0.039,0.117,0,0.039,0,0,0,0.078,0,0.078,0,0,0,"C"
"966","D",0.039,0.039,0.078,0.039,0.039,0.313,0.039,0.117,0.078,0.039,0.039,0.039,0,0.039,0,0.078,0.039,0.039,0,"C"
"967","D",0.117,0.039,0,0,0,0.586,0.039,0,0,0,0.039,0.039,0,0.078,0.039,0,0.039,0.039,0.039,"C"
"968","D",0.078,0,0.117,0.039,0.273,0.547,0,0.039,0.078,0.039,0,0,0.078,0,0,0.039,0,0,0.039,"C"
"969","D",0.156,0.039,0,0,0,0.508,0.039,0,0,0,0.078,0,0,0.078,0.078,0,0.078,0.078,0,"C"
"970","D",0.352,0.039,0.156,0,0.039,0.742,0,0,0,0,0.078,0.039,0,0.039,0,0.039,0.078,0.039,0.039,"C"
"971","D",0.352,0.078,0.156,0.156,0.039,0.43,0.117,0.078,0,0.039,0.078,0.078,0.117,0.039,0.039,0.039,0.039,0,0.117,"C"
"972","D",0.273,0.039,0,0.039,0,0.625,0,0,0,0,0.078,0.039,0.039,0,0,0,0,0,0.039,"C"
"973","H",0.039,0,0.039,0.117,0.195,0.039,0,0.039,0.078,0.039,0,0,0.039,0,0,0.039,0,0,0,"C"
"974","H",0.039,0.039,0,0,0,0,0,0.078,0,0,0.039,0,0,0.156,0.039,0,0.078,0.039,0,"C"
"975","H",0.039,0,0.117,0.039,0.039,0.039,0.039,0.078,0,0.117,0.078,0.078,0.078,0.039,0.039,0.078,0.039,0.078,0.117,"C"
"976","H",0,0,0.156,0,0,0,0,0.078,0.039,0.039,0.039,0,0,0.039,0.039,0,0.078,0.039,0,"C"
"977","H",0.078,0.117,0,0.117,0.039,0.117,0.039,0.039,0.195,0.117,0.117,0.039,0.078,0,0,0.156,0.078,0,0.078,"C"
"978","H",0,0.039,0,0,0,0,0,0,0,0.039,0,0,0,0,0,0,0.039,0,0,"C"
"979","H",0.039,0.078,0.117,0.117,0.078,0.156,0.039,0.117,0.039,0,0.039,0.039,0.156,0.039,0.117,0.039,0.078,0.234,0.039,"C"
"980","H",0.117,0.117,0,0.156,0,0.078,0,0.117,0,0.039,0.117,0.039,0.078,0,0,0.117,0.156,0.078,0.117,"C"
"981","H",0,0.039,0.117,0.117,0.039,0.039,0,0,0,0.039,0,0.078,0.156,0,0,0.078,0,0.078,0.039,"C"
"982","H",0,0,0,0,0,0,0.039,0.039,0.039,0,0.039,0.117,0,0.039,0,0.039,0.039,0.078,0,"C"
"983","H",0.039,0.039,0.039,0,0,0.039,0.078,0.078,0.039,0,0.117,0.039,0,0,0.039,0,0.039,0.039,0,"C"
"984","H",0.039,0,0,0.039,0.039,0,0.039,0,0.039,0.156,0.039,0.078,0.078,0.078,0.078,0.078,0.156,0,0.078,"C"
"985","H",0,0.039,0.039,0,0,0.078,0.039,0,0,0,0.039,0,0,0.039,0,0,0.039,0.039,0,"C"
"986","H",0,0,0,0,0,0,0,0,0,0,0,0.078,0,0.039,0,0,0,0.234,0.039,"C"
"987","H",0.039,0.039,0.078,0.039,0.039,0,0.039,0,0.039,0.234,0.078,0.117,0.039,0.078,0.039,0.117,0.117,0.078,0.117,"C"
"988","H",0,0,0,0,0,0.039,0,0.039,0.039,0.039,0,0,0,0.039,0,0,0,0,0,"C"
"989","H",0.117,0.156,0.039,0.117,0.039,0.078,0,0,0.039,0.039,0.117,0.156,0.078,0.039,0.078,0.039,0.078,0.039,0.039,"C"
"990","H",0.078,0,0,0.078,0.039,0.078,0.117,0.156,0,0.039,0.039,0,0,0.039,0.039,0,0.039,0.039,0.039,"C"
"991","D",0.039,0.039,0.039,0.039,0.117,0.078,0.117,0.039,0.039,0.039,0.039,0.039,0.078,0.078,0.078,0.039,0.078,0.039,0.117,"C"
"992","D",0,0,0,0.156,0,0.039,0,0,0,0,0,0,0,0,0,0,0,0,0,"C"
"993","D",0,0,0,0.117,0,0.391,0,0,0,0,0,0,0.078,0,0,0,0,0,0,"C"
"994","D",0,0.234,0.156,0.078,0.078,0,0.078,0.078,0,0.117,0.156,0.039,0.039,0,0.039,0,0,0,0.039,"C"
"995","D",0.078,0.195,0.117,0.117,0.117,0.078,0,0.078,0.039,0.039,0.117,0.156,0.117,0.078,0.039,0.039,0.078,0.117,0.156,"C"
"996","D",0,0,0.039,0.078,0.039,0,0,0,0.039,0.039,0,0.039,0.117,0,0,0.078,0,0,0.039,"C"
"997","D",0,0,0,0.039,0,0.078,0,0,0.039,0.039,0,0.039,0.078,0,0.039,0.078,0,0,0.039,"C"
"998","D",0.078,0.039,0,0.078,0.156,0,0.039,0.156,0.117,0.352,0,0.078,0.156,0.039,0.234,0.078,0.039,0.078,0.039,"C"
"999","D",0,0.039,0.156,0,0,0,0,0.039,0,0,0.039,0.078,0,0,0,0,0.078,0,0,"C"
"1000","D",0.273,0.156,0.117,0.078,0.117,0.117,0.156,0,0.039,0.078,0.234,0.117,0.078,0.234,0.039,0.117,0.352,0.273,0.117,"C"
"1001","D",0,0,0,0,0.156,0.117,0,0.039,0,0,0,0,0,0,0,0,0,0,0,"C"
"1002","D",0,0,0,0,0,0,0,0.039,0.039,0.039,0,0,0,0,0,0,0,0,0,"C"
"1003","D",0,0.117,0.039,0.117,0.078,0.078,0.078,0,0.039,0.039,0.156,0.078,0.078,0.117,0.039,0.117,0.039,0.039,0.117,"C"
"1004","D",0,0,0,0,0,0.078,0.039,0,0,0,0.156,0,0,0,0,0,0,0,0,"C"
"1005","D",0,0,0,0,0.117,0,0,0.039,0.117,0.117,0,0,0,0,0,0.078,0,0,0.117,"C"
"1006","D",0,0.039,0.039,0.078,0.039,0.039,0.039,0,0.039,0.039,0.039,0.078,0.078,0.039,0.039,0.039,0.039,0.039,0.039,"C"
"1007","D",0,0,0,0,0,0,0,0,0,0,0,0,0,0,0,0,0,0,0,"C"
"1008","D",0.039,0.039,0,0.195,0,0,0.039,0.156,0,0,0,0,0.156,0.039,0,0,0.039,0,0,"C"
"1009","H",0.352,0.508,0.469,0.195,0.273,0.586,0.625,0.703,0.469,0.117,0.859,0.82,0.195,0.859,1.055,0.352,0.273,0.195,0.703,"C"
"1010","H",0.273,0.703,0.703,0.195,0.352,0.313,0.938,0.664,0.391,0.195,0.703,1.055,0.117,0.664,0.664,0.43,0.508,0.156,0.781,"C"
"1011","H",0.391,0.703,0.508,0.195,0.43,0.195,1.172,0.547,0.273,0.273,0.508,0.742,0.039,0.625,0.742,0.469,0.352,0.234,0.586,"C"
"1012","H",0.234,0.273,0.977,0.313,0.352,0.391,1.016,0.859,0.273,0.117,0.781,0.898,0.078,0.742,0.313,0.234,0.43,0.156,0.625,"C"
"1013","H",0.43,0.977,0.547,0.117,0.273,0.273,0.625,0.859,0.273,0.195,0.625,0.859,0.195,0.703,0.586,0.273,0.508,0.039,0.469,"C"
"1014","H",0.469,0.625,0.703,0.313,0.586,0.313,0.859,0.625,0.273,0.273,0.781,0.508,0.156,0.938,1.055,0.313,0.586,0.117,0.781,"C"
"1015","H",0.43,0.82,0.781,0.156,0.156,0.156,0.703,0.703,0.313,0.313,0.703,0.625,0.117,0.742,0.703,0.352,0.469,0.313,0.859,"C"
"1016","H",0.273,0.664,0.586,0.352,0.273,0.391,0.664,0.625,0.156,0.313,0.781,0.508,0.352,0.547,0.742,0.313,0.586,0.039,0.508,"C"
"1017","H",0.273,0.547,0.703,0.117,0.117,0.273,0.703,0.664,0.547,0.156,0.859,0.469,0.273,0.938,0.664,0.273,0.508,0.156,0.625,"C"
"1018","H",0.273,0.586,0.781,0.352,0.273,0.43,0.82,0.781,0.234,0.273,0.977,0.625,0.273,0.742,0.859,0.313,0.742,0.156,0.703,"C"
"1019","H",0.43,0.547,0.625,0.313,0.195,0.273,0.742,0.508,0.156,0.273,0.469,0.859,0.352,0.547,0.742,0.273,0.43,0.117,0.586,"C"
"1020","H",0.352,0.664,0.664,0.313,0.234,0.078,1.133,0.586,0.469,0.117,0.664,0.508,0.313,0.703,0.859,0.391,0.469,0.273,0.703,"C"
"1021","H",0.391,0.625,0.703,0.313,0.313,0.273,0.586,0.586,0.313,0.391,0.742,0.781,0.352,0.625,0.43,0.313,0.43,0.195,0.742,"C"
"1022","H",0.469,0.977,0.625,0.117,0.234,0.117,0.742,0.703,0.195,0.234,0.703,0.703,0.273,0.742,0.352,0.391,0.313,0.313,0.703,"C"
"1023","H",0.234,0.703,0.82,0.391,0.43,0.273,0.703,0.82,0.195,0.234,0.508,0.742,0.352,0.859,0.859,0.234,0.703,0.117,0.625,"C"
"1024","H",0.508,0.469,0.625,0.234,0.273,0.352,0.625,0.664,0.195,0.195,1.016,0.273,0.078,0.664,0.977,0.43,0.391,0.156,0.664,"C"
"1025","H",0.156,0.742,0.586,0.273,0.117,0.352,0.703,0.742,0.234,0.313,0.625,0.508,0.156,0.625,0.781,0.195,0.469,0.156,1.016,"C"
"1026","H",0.117,0.508,0.664,0.273,0.234,0.391,0.547,0.82,0.234,0.234,0.703,0.742,0.156,0.625,0.664,0.391,0.234,0.195,0.703,"C"
"1027","H",0.195,0.508,0.352,0.234,0.273,0.234,0.273,0.43,0.391,0.352,0.469,0.664,0.469,0.586,0.391,0.313,0.078,0.352,0.469,"C"
"1028","H",0.234,0.508,0.391,0.43,0.313,0.313,0.469,0.156,0.313,0.313,0.508,0.391,0.469,0.547,0.703,0.352,0.039,0.313,0.586,"C"
"1029","H",0.273,0.391,0.664,0.43,0.352,0.352,0.313,0.43,0.352,0.313,0.508,0.43,0.352,0.391,0.43,0.234,0.039,0.117,0.703,"C"
"1030","H",0.391,0.625,0.469,0.469,0.313,0.273,0.508,0.234,0.195,0.273,0.703,0.391,0.547,0.625,0.82,0.195,0,0.508,0.547,"C"
"1031","H",0.273,0.352,0.547,0.313,0.313,0.195,0.43,0.313,0.234,0.273,0.391,0.469,0.43,0.469,0.352,0.234,0.156,0.117,0.352,"C"
"1032","H",0.313,0.508,0.625,0.273,0.156,0.313,0.547,0.391,0.313,0.43,0.469,0.43,0.508,0.508,0.664,0.391,0.078,0.117,0.547,"C"
"1033","H",0.352,0.625,0.547,0.391,0.273,0.391,0.508,0.234,0.313,0.195,0.586,0.547,0.234,0.43,0.469,0.313,0.156,0.195,0.508,"C"
"1034","H",0.195,0.625,0.664,0.43,0.469,0.313,0.313,0.43,0.273,0.234,0.625,0.313,0.234,0.273,0.508,0.117,0.078,0.156,0.625,"C"
"1035","H",0.273,0.547,0.391,0.391,0.234,0.469,0.508,0.352,0.273,0.352,0.586,0.313,0.313,0.547,0.664,0.156,0.117,0.391,0.391,"C"
"1036","H",0.195,0.469,0.859,0.469,0.43,0.313,0.43,0.43,0.234,0.273,0.469,0.508,0.469,0.391,0.586,0.352,0.117,0.508,0.586,"C"
"1037","H",0.352,0.586,0.547,0.352,0.234,0.547,0.547,0.625,0.117,0.508,0.547,0.547,0.273,0.664,0.43,0.352,0.078,0.117,0.625,"C"
"1038","H",0.234,0.508,0.547,0.352,0.469,0.352,0.508,0.625,0.117,0.234,0.859,0.508,0.352,0.352,0.508,0.391,0,0.273,0.625,"C"
"1039","H",0.43,0.43,0.586,0.234,0.313,0.273,0.586,0.586,0.313,0.352,0.508,0.586,0.313,0.508,0.391,0.234,0.039,0.352,0.781,"C"
"1040","H",0.313,0.469,0.547,0.156,0.234,0.313,0.469,0.469,0.234,0.547,0.586,0.781,0.508,0.547,0.508,0.117,0.234,0.313,0.586,"C"
"1041","H",0.469,0.586,0.43,0.273,0.039,0.117,0.43,0.43,0.234,0.391,0.898,0.313,0.273,0.547,0.625,0.313,0.156,0.195,0.508,"C"
"1042","H",0.43,0.195,0.313,0.43,0.117,0.508,0.391,0.273,0.117,0.234,0.508,0.391,0.352,0.586,0.391,0.391,0.117,0.234,0.703,"C"
"1043","H",0.273,0.664,0.391,0.469,0.313,0.469,0.742,0.586,0.117,0.391,0.625,0.625,0.586,0.469,0.586,0.352,0.117,0.117,0.547,"C"
"1044","H",0.352,0.703,0.625,0.352,0.313,0.586,0.508,0.586,0.313,0.469,0.781,0.625,0.313,0.547,0.703,0.391,0.156,0.469,0.664,"C"
"1045","D",0.078,0,0,0.039,0.078,0.078,0,0.039,0.039,0.078,0.039,0.039,0.039,0,0,0,0,0.078,0.117,"O"
"1046","D",0.039,0.078,0,0.117,0.195,0,0.117,0.039,0.117,0.039,0.117,0.117,0.117,0.078,0.039,0.078,0.117,0.117,0.195,"O"
"1047","D",0.039,0.078,0,0,0,0,0.156,0.078,0.117,0.078,0.117,0.039,0.078,0.078,0.039,0.117,0.039,0.039,0.117,"O"
"1048","D",0.039,0.039,0.078,0.117,0.039,0.039,0,0.039,0.078,0,0.078,0.039,0.117,0.039,0.156,0.039,0.117,0.039,0.078,"O"
"1049","D",0.078,0.156,0,0.117,0.117,0.078,0.078,0.117,0.156,0.117,0.117,0.078,0.039,0.039,0.039,0.234,0.156,0.156,0.078,"O"
"1050","D",0,0.039,0.039,0.078,0.039,0.156,0.117,0.078,0.195,0.039,0.156,0.156,0.039,0.078,0.078,0.117,0.117,0.156,0.039,"O"
"1051","D",0.039,0,0,0.039,0.039,0.078,0.039,0.078,0.078,0.039,0.039,0.078,0,0.078,0,0.156,0,0,0,"O"
"1052","D",0,0,0,0.117,0.039,0,0.039,0.078,0.156,0.039,0.039,0,0.039,0,0.039,0.117,0.039,0,0.039,"O"
"1053","D",0,0,0,0.117,0.039,0.078,0,0,0.039,0.156,0.039,0,0.039,0,0,0,0.039,0,0.117,"O"
"1054","D",0.078,0,0,0.039,0,0.078,0.039,0.117,0.039,0.039,0.039,0.039,0.039,0,0,0,0.039,0.039,0,"O"
"1055","D",0.039,0,0.039,0.078,0.039,0.078,0.039,0.117,0.156,0.156,0.117,0.039,0.117,0,0.039,0.078,0.117,0.117,0.039,"O"
"1056","D",0,0.313,0.078,0.039,0.078,0,0.195,0,0.156,0.117,0.195,0,0,0.078,0.078,0.078,0.117,0.078,0.117,"O"
"1057","D",0.039,0.078,0,0.078,0.078,0,0.039,0.039,0.117,0.117,0,0.117,0.117,0.078,0.078,0.078,0.078,0.039,0.195,"O"
"1058","D",0.117,0.078,0.039,0.117,0.078,0.078,0,0.156,0.078,0.117,0.039,0.039,0.078,0.039,0.078,0.117,0.156,0.039,0.195,"O"
"1059","D",0.156,0.039,0.039,0.117,0.039,0,0.117,0.078,0.078,0.156,0.039,0.039,0.078,0.039,0,0.117,0.039,0.117,0.039,"O"
"1060","D",0,0.078,0.156,0.039,0.078,0.039,0.039,0,0.039,0,0,0.078,0.039,0.078,0,0,0,0,0.039,"O"
"1061","D",0.039,0.039,0.117,0.078,0,0.039,0,0,0.039,0.039,0.078,0.078,0.078,0.039,0.039,0.039,0.039,0,0.078,"O"
"1062","D",0,0,0,0,0,0.039,0.078,0,0,0,0,0,0.039,0,0,0,0,0,0,"O"
"1063","D",0.039,0,0.039,0,0,0,0,0.117,0.117,0,0,0.156,0.117,0,0.117,0.078,0.117,0.078,0.117,"O"
"1064","D",0,0.078,0,0.039,0,0.039,0,0.078,0,0,0.039,0,0,0.039,0.039,0.039,0,0,0,"O"
"1065","D",0,0.078,0.078,0.039,0.039,0.039,0.039,0,0.117,0,0.078,0.117,0.039,0.156,0.039,0.195,0.117,0.078,0.078,"O"
"1066","D",0.039,0.039,0,0,0.039,0.078,0,0,0.117,0.195,0.078,0.078,0.078,0.039,0.078,0.156,0.117,0.195,0.039,"O"
"1067","D",0,0.039,0.078,0,0.117,0.039,0,0.078,0.078,0,0.156,0.039,0.078,0.039,0.117,0.078,0.117,0.039,0.039,"O"
"1068","D",0,0,0,0.313,0,0,0,0.078,0.039,0.117,0,0,0,0,0,0.117,0,0.078,0,"O"
"1069","D",0.117,0.039,0.039,0.039,0,0.117,0.078,0,0,0,0.117,0,0,0.039,0.156,0.039,0.078,0.156,0.039,"O"
"1070","D",0,0,0.117,0.195,0.117,0,0,0.078,0.156,0.156,0.156,0.156,0.156,0.039,0.195,0.234,0.156,0.156,0.156,"O"
"1071","D",0.039,0.156,0,0,0,0.039,0,0.039,0.039,0,0,0.039,0,0,0,0.039,0.039,0.039,0.039,"O"
"1072","D",0,0.039,0.039,0,0,0.039,0,0,0.039,0.039,0,0.039,0,0,0,0,0.039,0,0.039,"O"
"1073","D",0.117,0.117,0.039,0.156,0.078,0.195,0,0.117,0.078,0.039,0.117,0.078,0.078,0.078,0.117,0.117,0.078,0.039,0.078,"O"
"1074","D",0,0,0.078,0.039,0.078,0,0,0.039,0.117,0,0.078,0.039,0.039,0.039,0.039,0,0.078,0.078,0.039,"O"
"1075","D",0.078,0.117,0,0.078,0.078,0.078,0,0.195,0.156,0.195,0.039,0.039,0.078,0.117,0.156,0.078,0.117,0.117,0.117,"O"
"1076","D",0.039,0.039,0.117,0.039,0,0.039,0.078,0.156,0.039,0,0.039,0.039,0.078,0.078,0.078,0.039,0.039,0.039,0,"O"
"1077","D",0,0.078,0,0,0.039,0,0.039,0.078,0.039,0.039,0,0.039,0,0.039,0.039,0.039,0,0.039,0.117,"O"
"1078","D",0,0,0,0.039,0,0,0,0,0,0.078,0,0,0,0.039,0,0.117,0.117,0,0,"O"
"1079","D",0,0,0,0.039,0,0,0.078,0,0.078,0.117,0,0,0,0,0.078,0.078,0.039,0.039,0,"O"
"1080","D",0.117,0.039,0.039,0.195,0.117,0,0,0.039,0.039,0.078,0,0.078,0,0.117,0,0,0,0,0.039,"O"
"1081","D",0,0,0,0.078,0,0.234,0.195,0,0,0.039,0,0,0.078,0,0,0,0,0,0,"O"
"1082","D",0.039,0,0,0.078,0.039,0,0,0,0.039,0,0.156,0,0,0,0,0.039,0,0,0.039,"O"
"1083","D",0.039,0.039,0.039,0,0,0,0,0,0.039,0,0.039,0,0,0,0.039,0,0,0,0.039,"O"
"1084","D",0,0,0.117,0.078,0,0,0,0.078,0.078,0,0.117,0.078,0.117,0.039,0.039,0,0.039,0.078,0.156,"O"
"1085","D",0.039,0,0.078,0.117,0.117,0,0.117,0.156,0.039,0.156,0,0.039,0.078,0.039,0,0.078,0.039,0.078,0,"O"
"1086","D",0,0.039,0,0.039,0,0,0,0.117,0.156,0.156,0,0,0,0,0.078,0.117,0,0,0.195,"O"
"1087","D",0,0.078,0.078,0.078,0.039,0.039,0.078,0.156,0.039,0,0.039,0,0.039,0.039,0.039,0.039,0.078,0.117,0,"O"
"1088","D",0.039,0.039,0.039,0,0.156,0.039,0.039,0.117,0.039,0.078,0.039,0.117,0.234,0.078,0.039,0.117,0.039,0.156,0.117,"O"
"1089","D",0,0,0.039,0,0.039,0,0,0.039,0.078,0.117,0,0.039,0.078,0,0.039,0.117,0.039,0,0.039,"O"
"1090","D",0,0,0,0,0,0,0.078,0,0.039,0.078,0,0.039,0,0.117,0,0.039,0,0,0,"O"
"1091","D",0,0,0.078,0.039,0.078,0,0.039,0.078,0.117,0,0,0.039,0.156,0,0.039,0.039,0.039,0,0.078,"O"
"1092","D",0.117,0.039,0.195,0.117,0.078,0.039,0.039,0.039,0.117,0.117,0.156,0.156,0.117,0.117,0.078,0.117,0,0.078,0.117,"O"
"1093","D",0.039,0,0.039,0,0,0,0.078,0.039,0.117,0.078,0.078,0,0.039,0.117,0,0,0,0,0,"O"
"1094","D",0.117,0,0.039,0,0.039,0.039,0.117,0.078,0.078,0.078,0,0.078,0.039,0.078,0,0.039,0.039,0.117,0.078,"O"
"1095","D",0,0,0.078,0,0,0,0,0.039,0,0,0,0,0,0,0,0,0,0,0,"O"
"1096","D",0,0,0,0.078,0,0,0,0,0.039,0.039,0,0.039,0,0,0.078,0.039,0,0.039,0,"O"
"1097","D",0.117,0.078,0.078,0.039,0.039,0.078,0.195,0.117,0.039,0,0.117,0.195,0.039,0.117,0.078,0.039,0.117,0.078,0.117,"O"
"1098","D",0.195,0.117,0.234,0.039,0,0.039,0.117,0.117,0.117,0,0,0.078,0,0.078,0.078,0.039,0.039,0.078,0.078,"O"
"1099","H",0.039,0,0,0,0,0.039,0.039,0.039,0,0,0,0,0,0,0,0,0,0.039,0,"O"
"1100","H",0,0.078,0.039,0.078,0.039,0.039,0,0,0,0,0.039,0,0.078,0,0,0,0.117,0.039,0,"O"
"1101","H",0.039,0,0.039,0.039,0,0.039,0,0.078,0,0,0.039,0.039,0,0.078,0,0,0,0,0,"O"
"1102","H",0.039,0.078,0,0,0.078,0.117,0.117,0.078,0,0,0.078,0,0,0.195,0.078,0,0.039,0,0,"O"
"1103","H",0,0,0.078,0,0,0,0,0,0,0,0.078,0.039,0,0,0,0,0,0,0.039,"O"
"1104","H",0.117,0.039,0,0,0,0.078,0.039,0.039,0,0.039,0.039,0,0,0,0,0,0.039,0,0,"O"
"1105","H",0,0,0.078,0.039,0.117,0,0,0,0,0,0.039,0.039,0.078,0,0,0,0,0,0.039,"O"
"1106","H",0,0,0.039,0,0,0,0.039,0,0,0,0.039,0,0,0,0.039,0,0.039,0,0,"O"
"1107","H",0,0,0.039,0.039,0.234,0.078,0.039,0,0,0.195,0,0,0,0.039,0,0,0,0,0.039,"O"
"1108","H",0,0.078,0,0.117,0,0.078,0.039,0.078,0,0.078,0,0,0.078,0.117,0.078,0,0.039,0.039,0.039,"O"
"1109","H",0.078,0,0,0,0,0,0,0.078,0.156,0,0,0,0.078,0,0,0.039,0,0,0,"O"
"1110","H",0,0.039,0.039,0,0,0,0,0,0,0.078,0,0.078,0,0.078,0.039,0,0.039,0,0.078,"O"
"1111","H",0.117,0.078,0.078,0,0,0.078,0.039,0.039,0.078,0,0.039,0.039,0,0.039,0,0,0.039,0,0,"O"
"1112","H",0,0.039,0.039,0,0.078,0.039,0.039,0.039,0.039,0.078,0.078,0,0.039,0.078,0.039,0,0.039,0.078,0.039,"O"
"1113","H",0.117,0,0.039,0,0,0,0.117,0.039,0.039,0,0,0.039,0,0,0,0,0.039,0.078,0.039,"O"
"1114","H",0,0,0.078,0,0,0,0.039,0.117,0.039,0.117,0.039,0,0,0.039,0.117,0.234,0.039,0.078,0.078,"O"
"1115","H",0,0,0,0.078,0.039,0,0,0.078,0,0,0.078,0.039,0,0,0.117,0.039,0,0.195,0.078,"O"
"1116","H",0.039,0,0.039,0,0.117,0,0.078,0.039,0.039,0.039,0,0,0,0.078,0,0.078,0.039,0.039,0,"O"
"1117","H",0.078,0.156,0.156,0.117,0.078,0.078,0.195,0.352,0.039,0,0.195,0.117,0.117,0.234,0.156,0.117,0.234,0.117,0.195,"O"
"1118","H",0.156,0.156,0.156,0.273,0.078,0.117,0.234,0.195,0.039,0.078,0.117,0.195,0.313,0.234,0.117,0.234,0.156,0.313,0.078,"O"
"1119","H",0,0.156,0.039,0.313,0.039,0.078,0.117,0.273,0.117,0.156,0.117,0.352,0.234,0.234,0.313,0.117,0.352,0.117,0.195,"O"
"1120","H",0.156,0.195,0.039,0.273,0.195,0,0.156,0.117,0.156,0.078,0.313,0.43,0.117,0.273,0.195,0.117,0.195,0.195,0.195,"O"
"1121","H",0.078,0.078,0.117,0.195,0.352,0.039,0.273,0.195,0.234,0.078,0.234,0.078,0.195,0.195,0.234,0.234,0.156,0,0.039,"O"
"1122","H",0.234,0.039,0.117,0.117,0.234,0.273,0.234,0.156,0.078,0.117,0.117,0.117,0.117,0.273,0.273,0.039,0.195,0.195,0.234,"O"
"1123","H",0.039,0.195,0.078,0.352,0.117,0.117,0.195,0.234,0.039,0,0.117,0.195,0.156,0.313,0.195,0.156,0.391,0.078,0.156,"O"
"1124","H",0.117,0.195,0.039,0.078,0.195,0.273,0,0.195,0.156,0.078,0.078,0.234,0.391,0.234,0.234,0.117,0.313,0.313,0.469,"O"
"1125","H",0.117,0.195,0.195,0.195,0.273,0.195,0.234,0.117,0.039,0.234,0.156,0.156,0.313,0.234,0.195,0.117,0.195,0.195,0.391,"O"
"1126","H",0.195,0.078,0.039,0.313,0.156,0.156,0.234,0.078,0.039,0.078,0.078,0.352,0.117,0.195,0.469,0.039,0.273,0.156,0.156,"O"
"1127","H",0.156,0.195,0.039,0.156,0.117,0.117,0.313,0.117,0,0.195,0.078,0.234,0.078,0.234,0.234,0.117,0.078,0.039,0.234,"O"
"1128","H",0.117,0.156,0.195,0.078,0.156,0.273,0.078,0.117,0.078,0.156,0.156,0.273,0.273,0.195,0.195,0.078,0.195,0.117,0.195,"O"
"1129","H",0.234,0.156,0.508,0.195,0.156,0.117,0.234,0.234,0.117,0.195,0.195,0.195,0.195,0.234,0.234,0.273,0.273,0.234,0.195,"O"
"1130","H",0.195,0.156,0.313,0.117,0.078,0.078,0.313,0.273,0.039,0.117,0.156,0.117,0.313,0.078,0.195,0.117,0.117,0.156,0.078,"O"
"1131","H",0.156,0.078,0.117,0.117,0.078,0.078,0.313,0.156,0.117,0.156,0.039,0.273,0.156,0.273,0.234,0.078,0.352,0.117,0.156,"O"
"1132","H",0.156,0.156,0.234,0.195,0.156,0.039,0.273,0.234,0.117,0.156,0.234,0.273,0.117,0.078,0.039,0.195,0.156,0.234,0.234,"O"
"1133","H",0.078,0.078,0.156,0.195,0.156,0.156,0,0.039,0.156,0.117,0.273,0.234,0.117,0.352,0.117,0.078,0.195,0.313,0.039,"O"
"1134","H",0.078,0.078,0.352,0.078,0.234,0.078,0.391,0.117,0.156,0.078,0.117,0.273,0.234,0.234,0.156,0,0.195,0.156,0.156,"O"
"1135","H",0.117,0.039,0.156,0.195,0.313,0.195,0.273,0.156,0.586,0.234,0.156,0.156,0.195,0.469,0.117,0.664,0.117,0.586,0.234,"O"
"1136","H",0.117,0.078,0.117,0.078,0.352,0,0.234,0.156,0.391,0.117,0.195,0.156,0.039,0.117,0.195,0.586,0.117,0.43,0.156,"O"
"1137","H",0.234,0.117,0,0.117,0.43,0.078,0.195,0.039,0.352,0.039,0.234,0.156,0.117,0.234,0.156,0.273,0.195,0.586,0.078,"O"
"1138","H",0.117,0.156,0.039,0.156,0.391,0.195,0.195,0.156,0.313,0.039,0.195,0.313,0.039,0.352,0.234,0.508,0.117,0.352,0.156,"O"
"1139","H",0.352,0.195,0.039,0.234,0.391,0,0.195,0.195,0.273,0.117,0.039,0.234,0.078,0.117,0.039,0.586,0.156,0.742,0.234,"O"
"1140","H",0.508,0.117,0.117,0.039,0.352,0.117,0.234,0.195,0.664,0.078,0.156,0.195,0.078,0.313,0.195,0.352,0.234,0.469,0.156,"O"
"1141","H",0.273,0,0.039,0.078,0.43,0.078,0.117,0.039,0.352,0.039,0.234,0.156,0.039,0.234,0.117,0.625,0.156,0.313,0,"O"
"1142","H",0.313,0.117,0.117,0.117,0.313,0.117,0.234,0.273,0.43,0.156,0.078,0.234,0,0.273,0.078,0.391,0.156,0.547,0.039,"O"
"1143","H",0.352,0.039,0.156,0.313,0.508,0.039,0.195,0.156,0.469,0.039,0.117,0.273,0.078,0.313,0.156,0.586,0.117,0.508,0.078,"O"
"1144","H",0.117,0.039,0.078,0.039,0.313,0.078,0.273,0.078,0.469,0.039,0.117,0.117,0.078,0.43,0.195,0.313,0.195,0.195,0.078,"O"
"1145","H",0.078,0.039,0.195,0.078,0.273,0.078,0.078,0.195,0.43,0.195,0.039,0.195,0.234,0.352,0.156,0.43,0.234,0.586,0.156,"O"
"1146","H",0.313,0.078,0.117,0.117,0.273,0.195,0.156,0.156,0.234,0.078,0.078,0.43,0.039,0.039,0,0.703,0.117,0.664,0.156,"O"
"1147","H",0.391,0.078,0.117,0.078,0.391,0.078,0.195,0.195,0.469,0.156,0.039,0.156,0.117,0.156,0.117,0.547,0.039,0.391,0.117,"O"
"1148","H",0.391,0.156,0.117,0.039,0.313,0.039,0.234,0.078,0.469,0,0.156,0.273,0.039,0.547,0.039,0.508,0.117,0.586,0.117,"O"
"1149","H",0.352,0.117,0.039,0.039,0.234,0.078,0.117,0.156,0.273,0.117,0.195,0.156,0.078,0.234,0.156,0.313,0.352,0.586,0.156,"O"
"1150","H",0.195,0.039,0.156,0.078,0.43,0.156,0.273,0.078,0.391,0,0.078,0.234,0.039,0.391,0.117,0.469,0.234,0.313,0.039,"O"
"1151","H",0.195,0.039,0.273,0.195,0.273,0.078,0.195,0.039,0.508,0.078,0.195,0.156,0.117,0.273,0.117,0.391,0.313,0.469,0.039,"O"
"1152","H",0.234,0.117,0.117,0.117,0.352,0.156,0.234,0.156,0.352,0.039,0.078,0.156,0.117,0.313,0,0.469,0.195,0.625,0.078,"O"
"1153","H",0.117,0.078,0.156,0,0.156,0.156,0.078,0.078,0.078,0.039,0.117,0.195,0.156,0.078,0.156,0.234,0.313,0.117,0.117,"O"
"1154","H",0.117,0.195,0.039,0.156,0.039,0.039,0.078,0.156,0.234,0.234,0.234,0.039,0.078,0.117,0.195,0.273,0.391,0.195,0.352,"O"
"1155","H",0.039,0.195,0.117,0.234,0.156,0.195,0.117,0.039,0.156,0.117,0.195,0.078,0.273,0.117,0.039,0.078,0.273,0.195,0.195,"O"
"1156","H",0,0.195,0.078,0.078,0.156,0.234,0.039,0.234,0.117,0.117,0.234,0.039,0.156,0.039,0.234,0.039,0.078,0.039,0.156,"O"
"1157","H",0.078,0.313,0.117,0,0.234,0.117,0.078,0.078,0.117,0.117,0.352,0.156,0.117,0.078,0.234,0.234,0.195,0.156,0.234,"O"
"1158","H",0.195,0.547,0.078,0.117,0.039,0.156,0.078,0.039,0.234,0.078,0.156,0.117,0.234,0.156,0.234,0.039,0.195,0.078,0.273,"O"
"1159","H",0.117,0.234,0,0,0.117,0.039,0.195,0.039,0.195,0.156,0.156,0.117,0.078,0.117,0.117,0.156,0.273,0.234,0.313,"O"
